Wavelength (µm)	<125 µm (357)
0.30000	0.096061
0.30500	0.10021
0.31000	0.10565
0.31500	0.11025
0.32000	0.11800
0.32500	0.12774
0.33000	0.13884
0.33500	0.14971
0.34000	0.16258
0.34500	0.17701
0.35000	0.19203
0.35500	0.20538
0.36000	0.21823
0.36500	0.22941
0.37000	0.23967
0.37500	0.24929
0.38000	0.25846
0.38500	0.26680
0.39000	0.27746
0.39500	0.28638
0.40000	0.29530
0.40500	0.30476
0.41000	0.31490
0.41500	0.32352
0.42000	0.32868
0.42500	0.33588
0.43000	0.34106
0.43500	0.34939
0.44000	0.35592
0.44500	0.36240
0.45000	0.36488
0.45500	0.37019
0.46000	0.37557
0.46500	0.38140
0.47000	0.38425
0.47500	0.39066
0.48000	0.39691
0.48500	0.40184
0.49000	0.40730
0.49500	0.41394
0.50000	0.42328
0.50500	0.43292
0.51000	0.44182
0.51500	0.45024
0.52000	0.45714
0.52500	0.46441
0.53000	0.47193
0.53500	0.47908
0.54000	0.48427
0.54500	0.48999
0.55000	0.49476
0.55500	0.49923
0.56000	0.50235
0.56500	0.50574
0.57000	0.50654
0.57500	0.50842
0.58000	0.50929
0.58500	0.50865
0.59000	0.50843
0.59500	0.50798
0.60000	0.50699
0.60500	0.50591
0.61000	0.50444
0.61500	0.50325
0.62000	0.50145
0.62500	0.49963
0.63000	0.49852
0.63500	0.49735
0.64000	0.49812
0.64500	0.49880
0.65000	0.50024
0.65500	0.50099
0.66000	0.50240
0.66500	0.50348
0.67000	0.50529
0.67500	0.50687
0.68000	0.50874
0.68500	0.50785
0.69000	0.50638
0.69500	0.50603
0.70000	0.50586
0.70500	0.50585
0.71000	0.50554
0.71500	0.50554
0.72000	0.50398
0.72500	0.50235
0.73000	0.50010
0.73500	0.49793
0.74000	0.49370
0.74500	0.49067
0.75000	0.48622
0.75500	0.48134
0.76000	0.47716
0.76500	0.47159
0.77000	0.46674
0.77500	0.46082
0.78000	0.45564
0.78500	0.44975
0.79000	0.44492
0.79500	0.43903
0.80000	0.43502
0.80500	0.42941
0.81000	0.42381
0.81500	0.41964
0.82000	0.41414
0.82500	0.41085
0.83000	0.40619
0.83500	0.40343
0.84000	0.39852
0.84500	0.39526
0.85000	0.39150
0.85500	0.38774
0.86000	0.38442
0.86500	0.38118
0.87000	0.37907
0.87500	0.37622
0.88000	0.37373
0.88500	0.37013
0.89000	0.36717
0.89500	0.36458
0.90000	0.36264
0.90500	0.35855
0.91000	0.35585
0.91500	0.35188
0.92000	0.34813
0.92500	0.34464
0.93000	0.34075
0.93500	0.33649
0.94000	0.33224
0.94500	0.32796
0.95000	0.32377
0.95500	0.31872
0.96000	0.31462
0.96500	0.31056
0.97000	0.30624
0.97500	0.30192
0.98000	0.29765
0.98500	0.29398
0.99000	0.29009
0.99500	0.28594
1.0000	0.28237
1.0050	0.27930
1.0100	0.27635
1.0150	0.27412
1.0200	0.27247
1.0250	0.27010
1.0300	0.26903
1.0350	0.26812
1.0400	0.26698
1.0450	0.26680
1.0500	0.26783
1.0550	0.26773
1.0600	0.26862
1.0650	0.26980
1.0700	0.27107
1.0750	0.27317
1.0800	0.27538
1.0850	0.27812
1.0900	0.28177
1.0950	0.28546
1.1000	0.28837
1.1050	0.29253
1.1100	0.29691
1.1150	0.30065
1.1200	0.30370
1.1250	0.30781
1.1300	0.31188
1.1350	0.31516
1.1400	0.31863
1.1450	0.32175
1.1500	0.32532
1.1550	0.32837
1.1600	0.33067
1.1650	0.33325
1.1700	0.33650
1.1750	0.33905
1.1800	0.34172
1.1850	0.34376
1.1900	0.34556
1.1950	0.34809
1.2000	0.35049
1.2050	0.35277
1.2100	0.35519
1.2150	0.35712
1.2200	0.35929
1.2250	0.36150
1.2300	0.36310
1.2350	0.36544
1.2400	0.36790
1.2450	0.37014
1.2500	0.37302
1.2550	0.37537
1.2600	0.37738
1.2650	0.38034
1.2700	0.38256
1.2750	0.38538
1.2800	0.38815
1.2850	0.39050
1.2900	0.39369
1.2950	0.39709
1.3000	0.40055
1.3050	0.40301
1.3100	0.40715
1.3150	0.41068
1.3200	0.41466
1.3250	0.41782
1.3300	0.42263
1.3350	0.42545
1.3400	0.42931
1.3450	0.43292
1.3500	0.43698
1.3550	0.44081
1.3600	0.44544
1.3650	0.44906
1.3700	0.45349
1.3750	0.45789
1.3800	0.46235
1.3850	0.46571
1.3900	0.47067
1.3950	0.47551
1.4000	0.47950
1.4050	0.48402
1.4100	0.48795
1.4150	0.49332
1.4200	0.49652
1.4250	0.50060
1.4300	0.50480
1.4350	0.50897
1.4400	0.51218
1.4450	0.51645
1.4500	0.52021
1.4550	0.52308
1.4600	0.52697
1.4650	0.53054
1.4700	0.53346
1.4750	0.53694
1.4800	0.53992
1.4850	0.54304
1.4900	0.54506
1.4950	0.54759
1.5000	0.55054
1.5050	0.55299
1.5100	0.55531
1.5150	0.55751
1.5200	0.55976
1.5250	0.56141
1.5300	0.56314
1.5350	0.56548
1.5400	0.56620
1.5450	0.56846
1.5500	0.56925
1.5550	0.57012
1.5600	0.57110
1.5650	0.57237
1.5700	0.57358
1.5750	0.57455
1.5800	0.57476
1.5850	0.57444
1.5900	0.57506
1.5950	0.57538
1.6000	0.57637
1.6050	0.57608
1.6100	0.57638
1.6150	0.57651
1.6200	0.57741
1.6250	0.57629
1.6300	0.57597
1.6350	0.57590
1.6400	0.57623
1.6450	0.57543
1.6500	0.57560
1.6550	0.57482
1.6600	0.57535
1.6650	0.57485
1.6700	0.57474
1.6750	0.57456
1.6800	0.57392
1.6850	0.57328
1.6900	0.57292
1.6950	0.57319
1.7000	0.57193
1.7050	0.57159
1.7100	0.57196
1.7150	0.57121
1.7200	0.57072
1.7250	0.57089
1.7300	0.56969
1.7350	0.56973
1.7400	0.56912
1.7450	0.56835
1.7500	0.56843
1.7550	0.56781
1.7533	0.56767
1.7557	0.56740
1.7581	0.56740
1.7605	0.56737
1.7629	0.56728
1.7653	0.56718
1.7677	0.56698
1.7701	0.56686
1.7725	0.56682
1.7750	0.56672
1.7774	0.56676
1.7798	0.56681
1.7823	0.56671
1.7847	0.56683
1.7872	0.56678
1.7897	0.56660
1.7921	0.56655
1.7946	0.56645
1.7971	0.56625
1.7996	0.56623
1.8021	0.56619
1.8046	0.56603
1.8071	0.56604
1.8097	0.56603
1.8122	0.56612
1.8147	0.56618
1.8173	0.56611
1.8198	0.56593
1.8224	0.56590
1.8250	0.56603
1.8275	0.56596
1.8301	0.56576
1.8327	0.56589
1.8353	0.56614
1.8379	0.56618
1.8405	0.56615
1.8431	0.56615
1.8458	0.56620
1.8484	0.56628
1.8510	0.56636
1.8537	0.56641
1.8563	0.56646
1.8590	0.56645
1.8617	0.56659
1.8643	0.56680
1.8670	0.56682
1.8697	0.56679
1.8724	0.56680
1.8751	0.56688
1.8779	0.56682
1.8806	0.56685
1.8833	0.56692
1.8861	0.56706
1.8888	0.56726
1.8916	0.56713
1.8943	0.56704
1.8971	0.56698
1.8999	0.56713
1.9027	0.56718
1.9055	0.56723
1.9083	0.56726
1.9111	0.56729
1.9139	0.56745
1.9167	0.56742
1.9196	0.56752
1.9224	0.56775
1.9253	0.56794
1.9282	0.56819
1.9310	0.56850
1.9339	0.56878
1.9368	0.56884
1.9397	0.56898
1.9426	0.56940
1.9455	0.56964
1.9484	0.56967
1.9514	0.56997
1.9543	0.57032
1.9573	0.57063
1.9602	0.57094
1.9632	0.57120
1.9662	0.57136
1.9692	0.57167
1.9722	0.57196
1.9752	0.57232
1.9782	0.57269
1.9812	0.57294
1.9843	0.57327
1.9873	0.57346
1.9903	0.57361
1.9934	0.57396
1.9965	0.57416
1.9996	0.57439
2.0027	0.57452
2.0058	0.57472
2.0089	0.57523
2.0120	0.57555
2.0151	0.57582
2.0183	0.57613
2.0214	0.57636
2.0246	0.57673
2.0277	0.57707
2.0309	0.57723
2.0341	0.57744
2.0373	0.57772
2.0405	0.57779
2.0437	0.57807
2.0469	0.57849
2.0502	0.57884
2.0534	0.57889
2.0567	0.57892
2.0600	0.57918
2.0632	0.57959
2.0665	0.57996
2.0698	0.58018
2.0731	0.58042
2.0765	0.58068
2.0798	0.58077
2.0831	0.58091
2.0865	0.58106
2.0899	0.58124
2.0932	0.58162
2.0966	0.58187
2.1000	0.58190
2.1034	0.58210
2.1069	0.58248
2.1103	0.58282
2.1137	0.58293
2.1172	0.58309
2.1207	0.58349
2.1241	0.58370
2.1276	0.58369
2.1311	0.58398
2.1346	0.58437
2.1381	0.58457
2.1417	0.58469
2.1452	0.58500
2.1488	0.58529
2.1524	0.58530
2.1559	0.58530
2.1595	0.58545
2.1631	0.58564
2.1668	0.58580
2.1704	0.58611
2.1740	0.58632
2.1777	0.58657
2.1813	0.58683
2.1850	0.58701
2.1887	0.58719
2.1924	0.58725
2.1961	0.58737
2.1999	0.58765
2.2036	0.58780
2.2074	0.58781
2.2111	0.58787
2.2149	0.58812
2.2187	0.58820
2.2225	0.58827
2.2263	0.58864
2.2302	0.58885
2.2340	0.58903
2.2379	0.58926
2.2417	0.58942
2.2456	0.58970
2.2495	0.58970
2.2534	0.58972
2.2573	0.58981
2.2613	0.58985
2.2652	0.58997
2.2692	0.58995
2.2732	0.59011
2.2772	0.59025
2.2812	0.59023
2.2852	0.59037
2.2893	0.59056
2.2933	0.59075
2.2974	0.59098
2.3015	0.59106
2.3055	0.59124
2.3097	0.59147
2.3138	0.59180
2.3179	0.59218
2.3221	0.59241
2.3262	0.59263
2.3304	0.59289
2.3346	0.59321
2.3388	0.59359
2.3431	0.59392
2.3473	0.59424
2.3516	0.59453
2.3558	0.59478
2.3601	0.59504
2.3644	0.59526
2.3688	0.59552
2.3731	0.59569
2.3775	0.59584
2.3818	0.59615
2.3862	0.59648
2.3906	0.59671
2.3950	0.59686
2.3995	0.59704
2.4039	0.59727
2.4084	0.59764
2.4129	0.59791
2.4174	0.59802
2.4219	0.59811
2.4264	0.59831
2.4310	0.59844
2.4356	0.59841
2.4401	0.59836
2.4447	0.59835
2.4494	0.59837
2.4540	0.59846
2.4587	0.59835
2.4633	0.59837
2.4680	0.59862
2.4727	0.59873
2.4775	0.59885
2.4822	0.59877
2.4870	0.59877
2.4918	0.59893
2.4966	0.59911
2.5014	0.59919
2.5062	0.59920
2.5111	0.59941
2.5160	0.59960
2.5209	0.59961
2.5258	0.59958
2.5307	0.59973
2.5357	0.59987
2.5406	0.59984
2.5456	0.59986
2.5506	0.60003
2.5557	0.60009
2.5607	0.60001
2.5658	0.59983
2.5709	0.60001
2.5760	0.60010
2.5811	0.59994
2.5863	0.59982
2.5914	0.59974
2.5966	0.59943
2.6018	0.59939
2.6071	0.59954
2.6123	0.59955
2.6176	0.59949
2.6229	0.59949
2.6282	0.59954
2.6336	0.59925
2.6389	0.59934
2.6443	0.59937
2.6497	0.59880
2.6552	0.59808
2.6606	0.59738
2.6661	0.59625
2.6716	0.59473
2.6771	0.59307
2.6826	0.59092
2.6882	0.58768
2.6938	0.58233
2.6994	0.57481
2.7050	0.56580
2.7107	0.55747
2.7164	0.55114
2.7221	0.54504
2.7278	0.53810
2.7336	0.53149
2.7394	0.52402
2.7452	0.51627
2.7510	0.51027
2.7568	0.50421
2.7627	0.49779
2.7686	0.49234
2.7746	0.48772
2.7805	0.48315
2.7865	0.47963
2.7925	0.47691
2.7985	0.47419
2.8046	0.47153
2.8107	0.47001
2.8168	0.46910
2.8229	0.46782
2.8291	0.46595
2.8353	0.46402
2.8415	0.46224
2.8477	0.46102
2.8540	0.46048
2.8603	0.46000
2.8666	0.45940
2.8730	0.45875
2.8794	0.45786
2.8858	0.45709
2.8922	0.45653
2.8987	0.45547
2.9052	0.45444
2.9117	0.45397
2.9183	0.45325
2.9249	0.45265
2.9315	0.45243
2.9381	0.45224
2.9448	0.45226
2.9515	0.45248
2.9583	0.45224
2.9650	0.45214
2.9718	0.45255
2.9787	0.45289
2.9855	0.45320
2.9924	0.45402
2.9993	0.45483
3.0063	0.45529
3.0133	0.45581
3.0203	0.45657
3.0274	0.45724
3.0345	0.45809
3.0416	0.45907
3.0487	0.45980
3.0559	0.46059
3.0632	0.46158
3.0704	0.46232
3.0777	0.46269
3.0850	0.46334
3.0924	0.46413
3.0998	0.46449
3.1072	0.46508
3.1147	0.46616
3.1222	0.46769
3.1298	0.46915
3.1373	0.47110
3.1449	0.47305
3.1526	0.47483
3.1603	0.47662
3.1680	0.47835
3.1758	0.47995
3.1836	0.48200
3.1914	0.48380
3.1993	0.48531
3.2072	0.48708
3.2021	0.48737
3.2040	0.48782
3.2060	0.48817
3.2080	0.48863
3.2100	0.48889
3.2120	0.48923
3.2140	0.48979
3.2160	0.49050
3.2180	0.49114
3.2200	0.49174
3.2220	0.49216
3.2240	0.49243
3.2260	0.49274
3.2280	0.49330
3.2300	0.49385
3.2320	0.49422
3.2340	0.49458
3.2360	0.49509
3.2381	0.49571
3.2401	0.49627
3.2421	0.49645
3.2441	0.49663
3.2462	0.49696
3.2482	0.49764
3.2502	0.49794
3.2523	0.49822
3.2543	0.49852
3.2564	0.49869
3.2584	0.49918
3.2605	0.49947
3.2625	0.49996
3.2646	0.50053
3.2666	0.50111
3.2687	0.50139
3.2707	0.50174
3.2728	0.50209
3.2749	0.50223
3.2770	0.50249
3.2790	0.50306
3.2811	0.50355
3.2832	0.50412
3.2853	0.50454
3.2873	0.50461
3.2894	0.50489
3.2915	0.50541
3.2936	0.50567
3.2957	0.50600
3.2978	0.50647
3.2999	0.50669
3.3020	0.50680
3.3041	0.50718
3.3062	0.50764
3.3083	0.50785
3.3104	0.50796
3.3125	0.50808
3.3147	0.50836
3.3168	0.50808
3.3189	0.50825
3.3210	0.50876
3.3232	0.50887
3.3253	0.50898
3.3274	0.50915
3.3296	0.50954
3.3317	0.50951
3.3338	0.50945
3.3360	0.50932
3.3381	0.50929
3.3403	0.50941
3.3424	0.50912
3.3446	0.50879
3.3468	0.50872
3.3489	0.50858
3.3511	0.50836
3.3533	0.50823
3.3554	0.50805
3.3576	0.50791
3.3598	0.50791
3.3620	0.50805
3.3641	0.50813
3.3663	0.50828
3.3685	0.50835
3.3707	0.50832
3.3729	0.50807
3.3751	0.50826
3.3773	0.50846
3.3795	0.50872
3.3817	0.50900
3.3839	0.50925
3.3861	0.50922
3.3883	0.50949
3.3905	0.50990
3.3928	0.51010
3.3950	0.51004
3.3972	0.51000
3.3994	0.50972
3.4017	0.50942
3.4039	0.50947
3.4061	0.50963
3.4084	0.50974
3.4106	0.50949
3.4129	0.50920
3.4151	0.50932
3.4174	0.50975
3.4196	0.50995
3.4219	0.51011
3.4241	0.51098
3.4264	0.51170
3.4287	0.51220
3.4309	0.51296
3.4332	0.51345
3.4355	0.51394
3.4378	0.51452
3.4400	0.51481
3.4423	0.51502
3.4446	0.51527
3.4469	0.51557
3.4492	0.51593
3.4515	0.51644
3.4538	0.51643
3.4561	0.51634
3.4584	0.51670
3.4607	0.51687
3.4630	0.51684
3.4653	0.51659
3.4676	0.51642
3.4700	0.51656
3.4723	0.51660
3.4746	0.51637
3.4770	0.51630
3.4793	0.51599
3.4816	0.51593
3.4840	0.51621
3.4863	0.51661
3.4887	0.51681
3.4910	0.51708
3.4934	0.51732
3.4957	0.51755
3.4981	0.51763
3.5004	0.51773
3.5028	0.51824
3.5052	0.51870
3.5075	0.51924
3.5099	0.51991
3.5123	0.52080
3.5147	0.52153
3.5171	0.52228
3.5194	0.52300
3.5218	0.52334
3.5242	0.52408
3.5266	0.52498
3.5290	0.52552
3.5314	0.52607
3.5338	0.52678
3.5362	0.52731
3.5387	0.52777
3.5411	0.52797
3.5435	0.52802
3.5459	0.52818
3.5483	0.52849
3.5508	0.52858
3.5532	0.52880
3.5556	0.52934
3.5581	0.52949
3.5605	0.52946
3.5630	0.52965
3.5654	0.52976
3.5679	0.52966
3.5703	0.52996
3.5728	0.53021
3.5753	0.53019
3.5777	0.53031
3.5802	0.53025
3.5827	0.53010
3.5852	0.53038
3.5876	0.53073
3.5901	0.53087
3.5926	0.53068
3.5951	0.53052
3.5976	0.53056
3.6001	0.53072
3.6026	0.53072
3.6051	0.53065
3.6076	0.53065
3.6101	0.53074
3.6126	0.53054
3.6152	0.53027
3.6177	0.53014
3.6202	0.53006
3.6227	0.53010
3.6253	0.53005
3.6278	0.52980
3.6303	0.52969
3.6329	0.52980
3.6354	0.52966
3.6380	0.52912
3.6405	0.52898
3.6431	0.52911
3.6457	0.52889
3.6482	0.52875
3.6508	0.52874
3.6534	0.52855
3.6559	0.52848
3.6585	0.52854
3.6611	0.52827
3.6637	0.52802
3.6663	0.52802
3.6689	0.52780
3.6715	0.52749
3.6741	0.52735
3.6767	0.52726
3.6793	0.52728
3.6819	0.52712
3.6845	0.52666
3.6872	0.52624
3.6898	0.52626
3.6924	0.52611
3.6950	0.52596
3.6977	0.52573
3.7003	0.52550
3.7030	0.52490
3.7056	0.52447
3.7083	0.52442
3.7109	0.52418
3.7136	0.52390
3.7162	0.52394
3.7189	0.52372
3.7216	0.52340
3.7242	0.52316
3.7269	0.52284
3.7296	0.52245
3.7323	0.52220
3.7350	0.52202
3.7377	0.52186
3.7404	0.52169
3.7431	0.52133
3.7458	0.52089
3.7485	0.52041
3.7512	0.52012
3.7539	0.51995
3.7566	0.51969
3.7593	0.51926
3.7621	0.51893
3.7648	0.51874
3.7675	0.51835
3.7703	0.51784
3.7730	0.51755
3.7758	0.51738
3.7785	0.51701
3.7813	0.51641
3.7840	0.51594
3.7868	0.51556
3.7896	0.51529
3.7923	0.51475
3.7951	0.51425
3.7979	0.51371
3.8007	0.51322
3.8035	0.51275
3.8063	0.51208
3.8091	0.51151
3.8119	0.51100
3.8147	0.51016
3.8175	0.50940
3.8203	0.50875
3.8231	0.50826
3.8259	0.50783
3.8288	0.50725
3.8316	0.50679
3.8344	0.50634
3.8373	0.50582
3.8401	0.50508
3.8429	0.50463
3.8458	0.50440
3.8487	0.50407
3.8515	0.50386
3.8544	0.50355
3.8572	0.50314
3.8601	0.50265
3.8630	0.50234
3.8659	0.50201
3.8688	0.50168
3.8716	0.50138
3.8745	0.50102
3.8774	0.50091
3.8803	0.50058
3.8832	0.50011
3.8862	0.49969
3.8891	0.49930
3.8920	0.49900
3.8949	0.49862
3.8978	0.49826
3.9008	0.49789
3.9037	0.49749
3.9067	0.49700
3.9096	0.49640
3.9126	0.49620
3.9155	0.49616
3.9185	0.49564
3.9214	0.49506
3.9244	0.49459
3.9274	0.49424
3.9304	0.49374
3.9333	0.49282
3.9363	0.49223
3.9393	0.49173
3.9423	0.49088
3.9453	0.48991
3.9483	0.48881
3.9513	0.48790
3.9543	0.48709
3.9574	0.48589
3.9604	0.48455
3.9634	0.48353
3.9664	0.48277
3.9695	0.48206
3.9725	0.48126
3.9756	0.48041
3.9786	0.47976
3.9817	0.47921
3.9847	0.47860
3.9878	0.47809
3.9909	0.47742
3.9939	0.47706
3.9970	0.47687
4.0001	0.47672
4.0032	0.47696
4.0063	0.47702
4.0094	0.47685
4.0125	0.47693
4.0156	0.47688
4.0187	0.47682
4.0218	0.47700
4.0249	0.47719
4.0281	0.47747
4.0312	0.47796
4.0343	0.47811
4.0375	0.47846
4.0406	0.47868
4.0438	0.47883
4.0469	0.47914
4.0501	0.47932
4.0533	0.47933
4.0564	0.47912
4.0596	0.47925
4.0628	0.47939
4.0660	0.47915
4.0692	0.47881
4.0724	0.47853
4.0756	0.47800
4.0788	0.47778
4.0820	0.47755
4.0852	0.47711
4.0884	0.47667
4.0917	0.47608
4.0949	0.47565
4.0981	0.47508
4.1014	0.47481
4.1046	0.47462
4.1079	0.47398
4.1111	0.47336
4.1144	0.47300
4.1177	0.47251
4.1209	0.47186
4.1242	0.47140
4.1275	0.47078
4.1308	0.47023
4.1341	0.46965
4.1374	0.46914
4.1407	0.46854
4.1440	0.46795
4.1473	0.46739
4.1506	0.46660
4.1540	0.46586
4.1573	0.46533
4.1606	0.46473
4.1640	0.46412
4.1673	0.46351
4.1707	0.46305
4.1740	0.46242
4.1774	0.46160
4.1808	0.46080
4.1841	0.46004
4.1875	0.45936
4.1909	0.45874
4.1943	0.45819
4.1977	0.45752
4.2011	0.45664
4.2045	0.45572
4.2079	0.45463
4.2113	0.45365
4.2147	0.45276
4.2182	0.45169
4.2216	0.45070
4.2250	0.44971
4.2285	0.44913
4.2319	0.44832
4.2354	0.44750
4.2389	0.44684
4.2423	0.44607
4.2458	0.44533
4.2493	0.44492
4.2528	0.44438
4.2563	0.44374
4.2598	0.44255
4.2633	0.44099
4.2668	0.43990
4.2703	0.43906
4.2738	0.43839
4.2773	0.43775
4.2809	0.43714
4.2844	0.43666
4.2880	0.43609
4.2915	0.43547
4.2951	0.43512
4.2986	0.43481
4.3022	0.43429
4.3058	0.43378
4.3093	0.43327
4.3129	0.43279
4.3165	0.43240
4.3201	0.43196
4.3237	0.43130
4.3273	0.43070
4.3309	0.43014
4.3346	0.42976
4.3382	0.42926
4.3418	0.42856
4.3455	0.42779
4.3491	0.42711
4.3528	0.42650
4.3564	0.42608
4.3601	0.42544
4.3637	0.42465
4.3674	0.42399
4.3711	0.42331
4.3748	0.42245
4.3785	0.42159
4.3822	0.42084
4.3859	0.42015
4.3896	0.41955
4.3933	0.41879
4.3971	0.41803
4.4008	0.41734
4.4045	0.41674
4.4083	0.41616
4.4120	0.41550
4.4158	0.41480
4.4196	0.41420
4.4233	0.41331
4.4271	0.41243
4.4309	0.41182
4.4347	0.41132
4.4385	0.41051
4.4423	0.40960
4.4461	0.40879
4.4499	0.40806
4.4537	0.40736
4.4576	0.40657
4.4614	0.40570
4.4652	0.40488
4.4691	0.40396
4.4729	0.40313
4.4768	0.40248
4.4807	0.40173
4.4845	0.40091
4.4884	0.40005
4.4923	0.39910
4.4962	0.39816
4.5001	0.39732
4.5040	0.39643
4.5079	0.39555
4.5119	0.39454
4.5158	0.39351
4.5197	0.39263
4.5237	0.39169
4.5276	0.39062
4.5316	0.38954
4.5356	0.38854
4.5395	0.38741
4.5435	0.38613
4.5475	0.38507
4.5515	0.38402
4.5555	0.38281
4.5595	0.38159
4.5635	0.38037
4.5675	0.37911
4.5715	0.37793
4.5756	0.37688
4.5796	0.37571
4.5837	0.37444
4.5877	0.37318
4.5918	0.37201
4.5959	0.37080
4.5999	0.36951
4.6040	0.36836
4.6081	0.36714
4.6122	0.36580
4.6163	0.36447
4.6204	0.36332
4.6246	0.36216
4.6287	0.36107
4.6328	0.35989
4.6370	0.35857
4.6411	0.35743
4.6453	0.35627
4.6494	0.35506
4.6536	0.35387
4.6578	0.35275
4.6620	0.35163
4.6662	0.35066
4.6704	0.34962
4.6746	0.34850
4.6788	0.34749
4.6830	0.34657
4.6873	0.34556
4.6915	0.34453
4.6958	0.34354
4.7000	0.34238
4.7043	0.34133
4.7086	0.34032
4.7129	0.33932
4.7171	0.33829
4.7214	0.33705
4.7257	0.33595
4.7301	0.33498
4.7344	0.33397
4.7387	0.33279
4.7430	0.33144
4.7474	0.33033
4.7517	0.32918
4.7561	0.32781
4.7605	0.32652
4.7648	0.32530
4.7692	0.32409
4.7736	0.32286
4.7780	0.32159
4.7824	0.32019
4.7868	0.31873
4.7913	0.31728
4.7957	0.31582
4.8001	0.31430
4.8046	0.31275
4.8090	0.31121
4.8135	0.30961
4.8180	0.30788
4.8225	0.30621
4.8269	0.30452
4.8314	0.30265
4.8359	0.30056
4.8405	0.29826
4.8450	0.29598
4.8495	0.29353
4.8541	0.29063
4.8586	0.28738
4.8632	0.28377
4.8677	0.27986
4.8723	0.27544
4.8769	0.27075
4.8815	0.26585
4.8861	0.26063
4.8907	0.25544
4.8953	0.25052
4.8999	0.24603
4.9046	0.24196
4.9092	0.23798
4.9139	0.23435
4.9185	0.23082
4.9232	0.22746
4.9279	0.22432
4.9326	0.22137
4.9373	0.21868
4.9420	0.21638
4.9467	0.21488
4.9514	0.21406
4.9562	0.21391
4.9609	0.21431
4.9656	0.21521
4.9704	0.21621
4.9752	0.21726
4.9800	0.21834
4.9847	0.21926
4.9895	0.21999
4.9943	0.22073
4.9992	0.22150
5.0040	0.22222
5.0088	0.22271
5.0137	0.22301
5.0185	0.22320
5.0234	0.22337
5.0283	0.22345
5.0331	0.22348
5.0380	0.22332
5.0429	0.22299
5.0478	0.22263
5.0528	0.22221
5.0577	0.22181
5.0626	0.22131
5.0676	0.22073
5.0725	0.21996
5.0775	0.21911
5.0825	0.21831
5.0875	0.21740
5.0925	0.21634
5.0975	0.21523
5.1025	0.21398
5.1075	0.21276
5.1126	0.21162
5.1176	0.21049
5.1227	0.20928
5.1277	0.20791
5.1328	0.20655
5.1379	0.20517
5.1430	0.20373
5.1481	0.20229
5.1532	0.20099
5.1583	0.19977
5.1635	0.19848
5.1686	0.19726
5.1738	0.19615
5.1790	0.19498
5.1841	0.19372
5.1893	0.19238
5.1945	0.19093
5.1997	0.18940
5.2050	0.18799
5.2102	0.18671
5.2154	0.18562
5.2207	0.18493
5.2259	0.18449
5.2312	0.18427
5.2365	0.18422
5.2418	0.18440
5.2471	0.18475
5.2524	0.18495
5.2577	0.18515
5.2631	0.18540
5.2684	0.18563
5.2738	0.18591
5.2792	0.18618
5.2845	0.18643
5.2899	0.18641
5.2953	0.18619
5.3008	0.18596
5.3062	0.18572
5.3116	0.18540
5.3171	0.18515
5.3225	0.18487
5.3280	0.18459
5.3335	0.18428
5.3390	0.18369
5.3445	0.18290
5.3500	0.18187
5.3555	0.18053
5.3610	0.17899
5.3666	0.17760
5.3722	0.17632
5.3777	0.17502
5.3833	0.17385
5.3889	0.17268
5.3945	0.17140
5.4001	0.17001
5.4058	0.16848
5.4114	0.16683
5.4171	0.16509
5.4227	0.16350
5.4284	0.16240
5.4341	0.16139
5.4398	0.16036
5.4455	0.15943
5.4512	0.15868
5.4570	0.15831
5.4627	0.15811
5.4685	0.15814
5.4743	0.15837
5.4801	0.15856
5.4859	0.15900
5.4917	0.15936
5.4975	0.15952
5.5033	0.15971
5.5092	0.15980
5.5150	0.15966
5.5209	0.15932
5.5268	0.15883
5.5327	0.15822
5.5386	0.15737
5.5445	0.15624
5.5505	0.15484
5.5564	0.15285
5.5624	0.15049
5.5684	0.14771
5.5743	0.14450
5.5803	0.14080
5.5864	0.13711
5.5924	0.13357
