Wavenumber (cm-1)	Wavelength (Âµm)	Wavelength (nm)	SynOl_Fo30
33333	0.30000	300.00	0.038370
32787	0.30500	305.00	0.040210
32258	0.31000	310.00	0.037970
31746	0.31500	315.00	0.039240
31250	0.32000	320.00	0.039710
30769	0.32500	325.00	0.040580
30303	0.33000	330.00	0.042190
29851	0.33500	335.00	0.042260
29412	0.34000	340.00	0.043390
28986	0.34500	345.00	0.044730
28571	0.35000	350.00	0.046300
28169	0.35500	355.00	0.048050
27778	0.36000	360.00	0.050100
27397	0.36500	365.00	0.051870
27027	0.37000	370.00	0.054080
26667	0.37500	375.00	0.056160
26316	0.38000	380.00	0.058460
25974	0.38500	385.00	0.060440
25641	0.39000	390.00	0.062560
25316	0.39500	395.00	0.065040
25000	0.40000	400.00	0.066740
24691	0.40500	405.00	0.068110
24390	0.41000	410.00	0.070350
24096	0.41500	415.00	0.073000
23810	0.42000	420.00	0.075960
23529	0.42500	425.00	0.079160
23256	0.43000	430.00	0.082380
22989	0.43500	435.00	0.085210
22727	0.44000	440.00	0.087780
22472	0.44500	445.00	0.089710
22222	0.45000	450.00	0.091380
21978	0.45500	455.00	0.094230
21739	0.46000	460.00	0.097350
21505	0.46500	465.00	0.10126
21277	0.47000	470.00	0.10476
21053	0.47500	475.00	0.10891
20833	0.48000	480.00	0.11339
20619	0.48500	485.00	0.11739
20408	0.49000	490.00	0.12091
20202	0.49500	495.00	0.12389
20000	0.50000	500.00	0.12736
19802	0.50500	505.00	0.13168
19608	0.51000	510.00	0.13544
19417	0.51500	515.00	0.13857
19231	0.52000	520.00	0.14178
19048	0.52500	525.00	0.14478
18868	0.53000	530.00	0.14778
18692	0.53500	535.00	0.15156
18519	0.54000	540.00	0.15561
18349	0.54500	545.00	0.15977
18182	0.55000	550.00	0.16413
18018	0.55500	555.00	0.16757
17857	0.56000	560.00	0.17197
17699	0.56500	565.00	0.17577
17544	0.57000	570.00	0.17949
17391	0.57500	575.00	0.18298
17241	0.58000	580.00	0.18604
17094	0.58500	585.00	0.18895
16949	0.59000	590.00	0.19163
16807	0.59500	595.00	0.19406
16667	0.60000	600.00	0.19625
16529	0.60500	605.00	0.19817
16393	0.61000	610.00	0.20019
16260	0.61500	615.00	0.20230
16129	0.62000	620.00	0.20440
16000	0.62500	625.00	0.20648
15873	0.63000	630.00	0.20860
15748	0.63500	635.00	0.21066
15625	0.64000	640.00	0.21304
15504	0.64500	645.00	0.21535
15385	0.65000	650.00	0.21765
15267	0.65500	655.00	0.21997
15152	0.66000	660.00	0.22210
15038	0.66500	665.00	0.22430
14925	0.67000	670.00	0.22656
14815	0.67500	675.00	0.22872
14706	0.68000	680.00	0.23070
14599	0.68500	685.00	0.23290
14493	0.69000	690.00	0.23492
14388	0.69500	695.00	0.23728
14286	0.70000	700.00	0.23913
14184	0.70500	705.00	0.24120
14085	0.71000	710.00	0.24292
13986	0.71500	715.00	0.24526
13889	0.72000	720.00	0.24680
13793	0.72500	725.00	0.25053
13699	0.73000	730.00	0.25230
13605	0.73500	735.00	0.25424
13514	0.74000	740.00	0.25588
13423	0.74500	745.00	0.25745
13333	0.75000	750.00	0.25935
13245	0.75500	755.00	0.26062
13158	0.76000	760.00	0.26248
13072	0.76500	765.00	0.26347
12987	0.77000	770.00	0.26473
12903	0.77500	775.00	0.26554
12821	0.78000	780.00	0.26620
12739	0.78500	785.00	0.26710
12658	0.79000	790.00	0.26738
12579	0.79500	795.00	0.26794
12500	0.80000	800.00	0.26907
12422	0.80500	805.00	0.26838
12346	0.81000	810.00	0.26822
12270	0.81500	815.00	0.26693
12195	0.82000	820.00	0.26669
12121	0.82500	825.00	0.26615
12048	0.83000	830.00	0.26517
11976	0.83500	835.00	0.26481
11905	0.84000	840.00	0.26352
11834	0.84500	845.00	0.26274
11765	0.85000	850.00	0.26165
11696	0.85500	855.00	0.25964
11628	0.86000	860.00	0.25848
11561	0.86500	865.00	0.25736
11494	0.87000	870.00	0.25632
11429	0.87500	875.00	0.25441
11364	0.88000	880.00	0.25340
11299	0.88500	885.00	0.25215
11236	0.89000	890.00	0.25134
11173	0.89500	895.00	0.24964
11111	0.90000	900.00	0.24920
11050	0.90500	905.00	0.24712
10989	0.91000	910.00	0.24601
10929	0.91500	915.00	0.24446
10870	0.92000	920.00	0.24325
10811	0.92500	925.00	0.24175
10753	0.93000	930.00	0.24116
10695	0.93500	935.00	0.23904
10638	0.94000	940.00	0.23768
10582	0.94500	945.00	0.23648
10526	0.95000	950.00	0.23488
10471	0.95500	955.00	0.23483
10417	0.96000	960.00	0.23275
10363	0.96500	965.00	0.23147
10309	0.97000	970.00	0.23046
10256	0.97500	975.00	0.22810
10204	0.98000	980.00	0.22580
10152	0.98500	985.00	0.22396
10101	0.99000	990.00	0.22219
10050	0.99500	995.00	0.22039
10000	1.0000	1000.0	0.21832
9950.2	1.0050	1005.0	0.21677
9901.0	1.0100	1010.0	0.21494
9852.2	1.0150	1015.0	0.21320
9803.9	1.0200	1020.0	0.21131
9756.1	1.0250	1025.0	0.20980
9708.7	1.0300	1030.0	0.20914
9661.8	1.0350	1035.0	0.20782
9615.4	1.0400	1040.0	0.20676
9569.4	1.0450	1045.0	0.20617
9523.8	1.0500	1050.0	0.20593
9478.7	1.0550	1055.0	0.20503
9434.0	1.0600	1060.0	0.20508
9389.7	1.0650	1065.0	0.20440
9345.8	1.0700	1070.0	0.20425
9302.3	1.0750	1075.0	0.20473
9259.3	1.0800	1080.0	0.20542
9216.6	1.0850	1085.0	0.20565
9174.3	1.0900	1090.0	0.20726
9132.4	1.0950	1095.0	0.20795
9090.9	1.1000	1100.0	0.20964
9049.8	1.1050	1105.0	0.21101
9009.0	1.1100	1110.0	0.21279
8968.6	1.1150	1115.0	0.21451
8928.6	1.1200	1120.0	0.21728
8888.9	1.1250	1125.0	0.21859
8849.6	1.1300	1130.0	0.22078
8810.6	1.1350	1135.0	0.22307
8771.9	1.1400	1140.0	0.22571
8733.6	1.1450	1145.0	0.22827
8695.7	1.1500	1150.0	0.22965
8658.0	1.1550	1155.0	0.23182
8620.7	1.1600	1160.0	0.23442
8583.7	1.1650	1165.0	0.23648
8547.0	1.1700	1170.0	0.23826
8510.6	1.1750	1175.0	0.23949
8474.6	1.1800	1180.0	0.24137
8438.8	1.1850	1185.0	0.24314
8403.4	1.1900	1190.0	0.24424
8368.2	1.1950	1195.0	0.24486
8333.3	1.2000	1200.0	0.24724
8298.8	1.2050	1205.0	0.24849
8264.5	1.2100	1210.0	0.24934
8230.5	1.2150	1215.0	0.25033
8196.7	1.2200	1220.0	0.25164
8163.3	1.2250	1225.0	0.25201
8130.1	1.2300	1230.0	0.25284
8097.2	1.2350	1235.0	0.25427
8064.5	1.2400	1240.0	0.25481
8032.1	1.2450	1245.0	0.25527
8000.0	1.2500	1250.0	0.25619
7968.1	1.2550	1255.0	0.25696
7936.5	1.2600	1260.0	0.25813
7905.1	1.2650	1265.0	0.25892
7874.0	1.2700	1270.0	0.25994
7843.1	1.2750	1275.0	0.26087
7812.5	1.2800	1280.0	0.26170
7782.1	1.2850	1285.0	0.26276
7751.9	1.2900	1290.0	0.26409
7722.0	1.2950	1295.0	0.26566
7692.3	1.3000	1300.0	0.26681
7662.8	1.3050	1305.0	0.26828
7633.6	1.3100	1310.0	0.26976
7604.6	1.3150	1315.0	0.27125
7575.8	1.3200	1320.0	0.27289
7547.2	1.3250	1325.0	0.27526
7518.8	1.3300	1330.0	0.27718
7490.6	1.3350	1335.0	0.27928
7462.7	1.3400	1340.0	0.28067
7434.9	1.3450	1345.0	0.28355
7407.4	1.3500	1350.0	0.28563
7380.1	1.3550	1355.0	0.28821
7352.9	1.3600	1360.0	0.29061
7326.0	1.3650	1365.0	0.29310
7299.3	1.3700	1370.0	0.29589
7272.7	1.3750	1375.0	0.29841
7246.4	1.3800	1380.0	0.30152
7220.2	1.3850	1385.0	0.30497
7194.2	1.3900	1390.0	0.30860
7168.5	1.3950	1395.0	0.31199
7142.9	1.4000	1400.0	0.31565
7117.4	1.4050	1405.0	0.31946
7092.2	1.4100	1410.0	0.32295
7067.1	1.4150	1415.0	0.32646
7042.3	1.4200	1420.0	0.32993
7017.5	1.4250	1425.0	0.33382
6993.0	1.4300	1430.0	0.33766
6968.6	1.4350	1435.0	0.34078
6944.4	1.4400	1440.0	0.34536
6920.4	1.4450	1445.0	0.35018
6896.6	1.4500	1450.0	0.35459
6872.9	1.4550	1455.0	0.35841
6849.3	1.4600	1460.0	0.36260
6825.9	1.4650	1465.0	0.36778
6802.7	1.4700	1470.0	0.37198
6779.7	1.4750	1475.0	0.37586
6756.8	1.4800	1480.0	0.38017
6734.0	1.4850	1485.0	0.38520
6711.4	1.4900	1490.0	0.38952
6689.0	1.4950	1495.0	0.39488
6666.7	1.5000	1500.0	0.39922
6644.5	1.5050	1505.0	0.40413
6622.5	1.5100	1510.0	0.40899
6600.7	1.5150	1515.0	0.41317
6578.9	1.5200	1520.0	0.41851
6557.4	1.5250	1525.0	0.42280
6535.9	1.5300	1530.0	0.42783
6514.7	1.5350	1535.0	0.43222
6493.5	1.5400	1540.0	0.43732
6472.5	1.5450	1545.0	0.44284
6451.6	1.5500	1550.0	0.44724
6430.9	1.5550	1555.0	0.45173
6410.3	1.5600	1560.0	0.45617
6389.8	1.5650	1565.0	0.46075
6369.4	1.5700	1570.0	0.46499
6349.2	1.5750	1575.0	0.47014
6329.1	1.5800	1580.0	0.47416
6309.1	1.5850	1585.0	0.47953
6289.3	1.5900	1590.0	0.48403
6269.6	1.5950	1595.0	0.48823
6250.0	1.6000	1600.0	0.49247
6230.5	1.6050	1605.0	0.49733
6211.2	1.6100	1610.0	0.50139
6192.0	1.6150	1615.0	0.50567
6172.8	1.6200	1620.0	0.50997
6153.8	1.6250	1625.0	0.51421
6135.0	1.6300	1630.0	0.51782
6116.2	1.6350	1635.0	0.52317
6097.6	1.6400	1640.0	0.52552
6079.0	1.6450	1645.0	0.52965
6060.6	1.6500	1650.0	0.53309
6042.3	1.6550	1655.0	0.53675
6024.1	1.6600	1660.0	0.54039
6006.0	1.6650	1665.0	0.54295
5988.0	1.6700	1670.0	0.54545
5970.1	1.6750	1675.0	0.54896
5952.4	1.6800	1680.0	0.55256
5934.7	1.6850	1685.0	0.55566
5917.2	1.6900	1690.0	0.55911
5899.7	1.6950	1695.0	0.56195
5882.4	1.7000	1700.0	0.56386
5865.1	1.7050	1705.0	0.56895
5848.0	1.7100	1710.0	0.57152
5830.9	1.7150	1715.0	0.57450
5814.0	1.7200	1720.0	0.57749
5797.1	1.7250	1725.0	0.58020
5780.3	1.7300	1730.0	0.58253
5763.7	1.7350	1735.0	0.58417
5747.1	1.7400	1740.0	0.58625
5730.7	1.7450	1745.0	0.58886
5714.3	1.7500	1750.0	0.59023
5698.0	1.7550	1755.0	0.59299
5681.8	1.7600	1760.0	0.59505
5665.7	1.7650	1765.0	0.59777
5649.7	1.7700	1770.0	0.59853
5633.8	1.7750	1775.0	0.59998
5618.0	1.7800	1780.0	0.60175
5602.2	1.7850	1785.0	0.60414
5586.6	1.7900	1790.0	0.60570
5571.0	1.7950	1795.0	0.60760
5555.6	1.8000	1800.0	0.60976
5540.2	1.8050	1805.0	0.61076
5524.9	1.8100	1810.0	0.61189
5509.6	1.8150	1815.0	0.61298
5494.5	1.8200	1820.0	0.61423
5479.5	1.8250	1825.0	0.61608
5464.5	1.8300	1830.0	0.61731
5449.6	1.8350	1835.0	0.61871
5434.8	1.8400	1840.0	0.61990
5420.1	1.8450	1845.0	0.62125
5405.4	1.8500	1850.0	0.62108
5401.9	1.8512	1851.2	0.62130
5399.9	1.8519	1851.9	0.62142
5397.8	1.8526	1852.6	0.62145
5396.1	1.8532	1853.2	0.62145
5394.0	1.8539	1853.9	0.62166
5392.3	1.8545	1854.5	0.62174
5390.3	1.8552	1855.2	0.62179
5388.2	1.8559	1855.9	0.62206
5386.5	1.8565	1856.5	0.62229
5384.4	1.8572	1857.2	0.62239
5382.4	1.8579	1857.9	0.62249
5380.7	1.8585	1858.5	0.62265
5378.7	1.8592	1859.2	0.62279
5376.6	1.8599	1859.9	0.62274
5374.9	1.8605	1860.5	0.62299
5372.9	1.8612	1861.2	0.62318
5370.9	1.8619	1861.9	0.62342
5369.1	1.8625	1862.5	0.62338
5367.1	1.8632	1863.2	0.62333
5365.1	1.8639	1863.9	0.62332
5363.4	1.8645	1864.5	0.62345
5361.4	1.8652	1865.2	0.62354
5359.3	1.8659	1865.9	0.62367
5357.3	1.8666	1866.6	0.62380
5355.6	1.8672	1867.2	0.62393
5353.6	1.8679	1867.9	0.62405
5351.6	1.8686	1868.6	0.62427
5349.6	1.8693	1869.3	0.62437
5347.9	1.8699	1869.9	0.62439
5345.9	1.8706	1870.6	0.62429
5343.9	1.8713	1871.3	0.62448
5342.2	1.8719	1871.9	0.62484
5340.2	1.8726	1872.6	0.62482
5338.2	1.8733	1873.3	0.62471
5336.2	1.8740	1874.0	0.62484
5334.2	1.8747	1874.7	0.62526
5332.5	1.8753	1875.3	0.62544
5330.5	1.8760	1876.0	0.62543
5328.5	1.8767	1876.7	0.62553
5326.5	1.8774	1877.4	0.62547
5324.5	1.8781	1878.1	0.62557
5322.8	1.8787	1878.7	0.62574
5320.8	1.8794	1879.4	0.62583
5318.9	1.8801	1880.1	0.62588
5316.9	1.8808	1880.8	0.62597
5314.9	1.8815	1881.5	0.62605
5313.2	1.8821	1882.1	0.62618
5311.2	1.8828	1882.8	0.62644
5309.3	1.8835	1883.5	0.62651
5307.3	1.8842	1884.2	0.62642
5305.3	1.8849	1884.9	0.62654
5303.4	1.8856	1885.6	0.62671
5301.4	1.8863	1886.3	0.62689
5299.7	1.8869	1886.9	0.62692
5297.7	1.8876	1887.6	0.62703
5295.8	1.8883	1888.3	0.62704
5293.8	1.8890	1889.0	0.62716
5291.8	1.8897	1889.7	0.62717
5289.9	1.8904	1890.4	0.62735
5287.9	1.8911	1891.1	0.62753
5286.0	1.8918	1891.8	0.62767
5284.3	1.8924	1892.4	0.62778
5282.3	1.8931	1893.1	0.62794
5280.4	1.8938	1893.8	0.62801
5278.4	1.8945	1894.5	0.62794
5276.5	1.8952	1895.2	0.62792
5274.5	1.8959	1895.9	0.62808
5272.6	1.8966	1896.6	0.62818
5270.6	1.8973	1897.3	0.62831
5268.7	1.8980	1898.0	0.62844
5266.8	1.8987	1898.7	0.62852
5264.8	1.8994	1899.4	0.62855
5262.9	1.9001	1900.1	0.62871
5260.9	1.9008	1900.8	0.62870
5259.0	1.9015	1901.5	0.62873
5257.1	1.9022	1902.2	0.62895
5255.1	1.9029	1902.9	0.62923
5253.2	1.9036	1903.6	0.62932
5251.3	1.9043	1904.3	0.62932
5249.3	1.9050	1905.0	0.62944
5247.4	1.9057	1905.7	0.62944
5245.5	1.9064	1906.4	0.62925
5243.6	1.9071	1907.1	0.62932
5241.6	1.9078	1907.8	0.62962
5239.7	1.9085	1908.5	0.62984
5237.8	1.9092	1909.2	0.62991
5235.9	1.9099	1909.9	0.62992
5234.0	1.9106	1910.6	0.62995
5232.0	1.9113	1911.3	0.63011
5230.1	1.9120	1912.0	0.63023
5228.2	1.9127	1912.7	0.63026
5226.3	1.9134	1913.4	0.63031
5224.4	1.9141	1914.1	0.63044
5222.5	1.9148	1914.8	0.63049
5220.6	1.9155	1915.5	0.63055
5218.7	1.9162	1916.2	0.63048
5216.8	1.9169	1916.9	0.63067
5214.9	1.9176	1917.6	0.63099
5212.9	1.9183	1918.3	0.63098
5210.8	1.9191	1919.1	0.63096
5208.9	1.9198	1919.8	0.63105
5207.0	1.9205	1920.5	0.63106
5205.1	1.9212	1921.2	0.63118
5203.2	1.9219	1921.9	0.63120
5201.3	1.9226	1922.6	0.63131
5199.4	1.9233	1923.3	0.63141
5197.2	1.9241	1924.1	0.63153
5195.3	1.9248	1924.8	0.63173
5193.5	1.9255	1925.5	0.63175
5191.6	1.9262	1926.2	0.63174
5189.7	1.9269	1926.9	0.63180
5187.8	1.9276	1927.6	0.63180
5185.9	1.9283	1928.3	0.63196
5183.8	1.9291	1929.1	0.63214
5181.9	1.9298	1929.8	0.63220
5180.0	1.9305	1930.5	0.63220
5178.1	1.9312	1931.2	0.63229
5176.3	1.9319	1931.9	0.63250
5174.1	1.9327	1932.7	0.63262
5172.2	1.9334	1933.4	0.63254
5170.4	1.9341	1934.1	0.63263
5168.5	1.9348	1934.8	0.63284
5166.6	1.9355	1935.5	0.63287
5164.5	1.9363	1936.3	0.63288
5162.6	1.9370	1937.0	0.63298
5160.8	1.9377	1937.7	0.63303
5158.9	1.9384	1938.4	0.63315
5156.8	1.9392	1939.2	0.63317
5154.9	1.9399	1939.9	0.63320
5153.0	1.9406	1940.6	0.63325
5151.2	1.9413	1941.3	0.63336
5149.1	1.9421	1942.1	0.63333
5147.2	1.9428	1942.8	0.63352
5145.4	1.9435	1943.5	0.63361
5143.2	1.9443	1944.3	0.63362
5141.4	1.9450	1945.0	0.63376
5139.5	1.9457	1945.7	0.63377
5137.7	1.9464	1946.4	0.63386
5135.6	1.9472	1947.2	0.63414
5133.7	1.9479	1947.9	0.63409
5131.9	1.9486	1948.6	0.63411
5129.8	1.9494	1949.4	0.63404
5127.9	1.9501	1950.1	0.63414
5126.1	1.9508	1950.8	0.63436
5124.0	1.9516	1951.6	0.63451
5122.2	1.9523	1952.3	0.63463
5120.3	1.9530	1953.0	0.63470
5118.2	1.9538	1953.8	0.63459
5116.4	1.9545	1954.5	0.63463
5114.3	1.9553	1955.3	0.63480
5112.5	1.9560	1956.0	0.63487
5110.6	1.9567	1956.7	0.63485
5108.6	1.9575	1957.5	0.63492
5106.7	1.9582	1958.2	0.63489
5104.9	1.9589	1958.9	0.63491
5102.8	1.9597	1959.7	0.63500
5101.0	1.9604	1960.4	0.63520
5098.9	1.9612	1961.2	0.63527
5097.1	1.9619	1961.9	0.63526
5095.0	1.9627	1962.7	0.63524
5093.2	1.9634	1963.4	0.63539
5091.4	1.9641	1964.1	0.63540
5089.3	1.9649	1964.9	0.63541
5087.5	1.9656	1965.6	0.63541
5085.4	1.9664	1966.4	0.63549
5083.6	1.9671	1967.1	0.63565
5081.6	1.9679	1967.9	0.63578
5079.8	1.9686	1968.6	0.63572
5077.7	1.9694	1969.4	0.63584
5075.9	1.9701	1970.1	0.63603
5074.1	1.9708	1970.8	0.63625
5072.0	1.9716	1971.6	0.63628
5070.2	1.9723	1972.3	0.63619
5068.2	1.9731	1973.1	0.63621
5066.4	1.9738	1973.8	0.63640
5064.3	1.9746	1974.6	0.63647
5062.3	1.9754	1975.4	0.63648
5060.5	1.9761	1976.1	0.63664
5058.4	1.9769	1976.9	0.63667
5056.6	1.9776	1977.6	0.63659
5054.6	1.9784	1978.4	0.63664
5052.8	1.9791	1979.1	0.63657
5050.8	1.9799	1979.9	0.63672
5049.0	1.9806	1980.6	0.63694
5046.9	1.9814	1981.4	0.63695
5044.9	1.9822	1982.2	0.63692
5043.1	1.9829	1982.9	0.63706
5041.1	1.9837	1983.7	0.63718
5039.3	1.9844	1984.4	0.63728
5037.3	1.9852	1985.2	0.63724
5035.5	1.9859	1985.9	0.63724
5033.5	1.9867	1986.7	0.63731
5031.4	1.9875	1987.5	0.63748
5029.7	1.9882	1988.2	0.63750
5027.7	1.9890	1989.0	0.63749
5025.6	1.9898	1989.8	0.63760
5023.9	1.9905	1990.5	0.63761
5021.8	1.9913	1991.3	0.63768
5019.8	1.9921	1992.1	0.63786
5018.1	1.9928	1992.8	0.63789
5016.1	1.9936	1993.6	0.63790
5014.3	1.9943	1994.3	0.63797
5012.3	1.9951	1995.1	0.63809
5010.3	1.9959	1995.9	0.63807
5008.3	1.9967	1996.7	0.63808
5006.5	1.9974	1997.4	0.63816
5004.5	1.9982	1998.2	0.63826
5002.5	1.9990	1999.0	0.63825
5000.7	1.9997	1999.7	0.63830
4998.8	2.0005	2000.5	0.63836
4996.8	2.0013	2001.3	0.63857
4994.8	2.0021	2002.1	0.63863
4993.0	2.0028	2002.8	0.63862
4991.0	2.0036	2003.6	0.63864
4989.0	2.0044	2004.4	0.63866
4987.0	2.0052	2005.2	0.63867
4985.3	2.0059	2005.9	0.63876
4983.3	2.0067	2006.7	0.63873
4981.3	2.0075	2007.5	0.63881
4979.3	2.0083	2008.3	0.63900
4977.6	2.0090	2009.0	0.63914
4975.6	2.0098	2009.8	0.63902
4973.6	2.0106	2010.6	0.63900
4971.7	2.0114	2011.4	0.63915
4969.7	2.0122	2012.2	0.63914
4968.0	2.0129	2012.9	0.63924
4966.0	2.0137	2013.7	0.63937
4964.0	2.0145	2014.5	0.63931
4962.0	2.0153	2015.3	0.63926
4960.1	2.0161	2016.1	0.63947
4958.3	2.0168	2016.8	0.63960
4956.4	2.0176	2017.6	0.63960
4954.4	2.0184	2018.4	0.63969
4952.5	2.0192	2019.2	0.63957
4950.5	2.0200	2020.0	0.63964
4948.5	2.0208	2020.8	0.63976
4946.6	2.0216	2021.6	0.63980
4944.6	2.0224	2022.4	0.63988
4942.7	2.0232	2023.2	0.64008
4941.0	2.0239	2023.9	0.64003
4939.0	2.0247	2024.7	0.63995
4937.1	2.0255	2025.5	0.63998
4935.1	2.0263	2026.3	0.64005
4933.2	2.0271	2027.1	0.64008
4931.2	2.0279	2027.9	0.64009
4929.3	2.0287	2028.7	0.63998
4927.3	2.0295	2029.5	0.64012
4925.4	2.0303	2030.3	0.64032
4923.4	2.0311	2031.1	0.64048
4921.5	2.0319	2031.9	0.64041
4919.6	2.0327	2032.7	0.64027
4917.6	2.0335	2033.5	0.64041
4915.7	2.0343	2034.3	0.64054
4913.8	2.0351	2035.1	0.64060
4911.8	2.0359	2035.9	0.64075
4909.9	2.0367	2036.7	0.64074
4908.0	2.0375	2037.5	0.64077
4906.0	2.0383	2038.3	0.64081
4904.1	2.0391	2039.1	0.64084
4902.2	2.0399	2039.9	0.64080
4900.3	2.0407	2040.7	0.64082
4898.4	2.0415	2041.5	0.64087
4896.4	2.0423	2042.3	0.64095
4894.5	2.0431	2043.1	0.64094
4892.6	2.0439	2043.9	0.64113
4890.7	2.0447	2044.7	0.64123
4888.8	2.0455	2045.5	0.64124
4886.9	2.0463	2046.3	0.64133
4885.0	2.0471	2047.1	0.64142
4883.1	2.0479	2047.9	0.64136
4881.1	2.0487	2048.7	0.64148
4879.2	2.0495	2049.5	0.64149
4877.1	2.0504	2050.4	0.64153
4875.2	2.0512	2051.2	0.64166
4873.3	2.0520	2052.0	0.64169
4871.4	2.0528	2052.8	0.64168
4869.5	2.0536	2053.6	0.64169
4867.6	2.0544	2054.4	0.64182
4865.7	2.0552	2055.2	0.64190
4863.8	2.0560	2056.0	0.64185
4861.7	2.0569	2056.9	0.64189
4859.8	2.0577	2057.7	0.64199
4857.9	2.0585	2058.5	0.64212
4856.0	2.0593	2059.3	0.64217
4854.1	2.0601	2060.1	0.64217
4852.2	2.0609	2060.9	0.64217
4850.1	2.0618	2061.8	0.64222
4848.2	2.0626	2062.6	0.64227
4846.4	2.0634	2063.4	0.64237
4844.5	2.0642	2064.2	0.64246
4842.4	2.0651	2065.1	0.64253
4840.5	2.0659	2065.9	0.64248
4838.6	2.0667	2066.7	0.64239
4836.8	2.0675	2067.5	0.64237
4834.9	2.0683	2068.3	0.64250
4832.8	2.0692	2069.2	0.64257
4830.9	2.0700	2070.0	0.64267
4829.1	2.0708	2070.8	0.64273
4827.2	2.0716	2071.6	0.64283
4825.1	2.0725	2072.5	0.64290
4823.2	2.0733	2073.3	0.64288
4821.4	2.0741	2074.1	0.64279
4819.3	2.0750	2075.0	0.64292
4817.4	2.0758	2075.8	0.64311
4815.6	2.0766	2076.6	0.64323
4813.5	2.0775	2077.5	0.64309
4811.6	2.0783	2078.3	0.64310
4809.8	2.0791	2079.1	0.64324
4807.7	2.0800	2080.0	0.64328
4805.8	2.0808	2080.8	0.64330
4804.0	2.0816	2081.6	0.64334
4801.9	2.0825	2082.5	0.64329
4800.1	2.0833	2083.3	0.64331
4798.2	2.0841	2084.1	0.64337
4796.2	2.0850	2085.0	0.64345
4794.3	2.0858	2085.8	0.64357
4792.3	2.0867	2086.7	0.64360
4790.4	2.0875	2087.5	0.64359
4788.6	2.0883	2088.3	0.64363
4786.5	2.0892	2089.2	0.64367
4784.7	2.0900	2090.0	0.64382
4782.6	2.0909	2090.9	0.64398
4780.8	2.0917	2091.7	0.64397
4778.7	2.0926	2092.6	0.64377
4776.9	2.0934	2093.4	0.64392
4775.1	2.0942	2094.2	0.64422
4773.0	2.0951	2095.1	0.64426
4771.2	2.0959	2095.9	0.64424
4769.2	2.0968	2096.8	0.64430
4767.4	2.0976	2097.6	0.64426
4765.3	2.0985	2098.5	0.64430
4763.5	2.0993	2099.3	0.64441
4761.5	2.1002	2100.2	0.64455
4759.6	2.1010	2101.0	0.64447
4757.6	2.1019	2101.9	0.64437
4755.8	2.1027	2102.7	0.64459
4753.8	2.1036	2103.6	0.64469
4751.9	2.1044	2104.4	0.64461
4749.9	2.1053	2105.3	0.64464
4748.1	2.1061	2106.1	0.64470
4746.1	2.1070	2107.0	0.64483
4744.1	2.1079	2107.9	0.64484
4742.3	2.1087	2108.7	0.64494
4740.2	2.1096	2109.6	0.64506
4738.4	2.1104	2110.4	0.64523
4736.4	2.1113	2111.3	0.64523
4734.4	2.1122	2112.2	0.64523
4732.6	2.1130	2113.0	0.64526
4730.6	2.1139	2113.9	0.64536
4728.8	2.1147	2114.7	0.64541
4726.8	2.1156	2115.6	0.64555
4724.8	2.1165	2116.5	0.64561
4723.0	2.1173	2117.3	0.64568
4721.0	2.1182	2118.2	0.64566
4719.0	2.1191	2119.1	0.64587
4717.2	2.1199	2119.9	0.64584
4715.2	2.1208	2120.8	0.64569
4713.2	2.1217	2121.7	0.64567
4711.4	2.1225	2122.5	0.64587
4709.4	2.1234	2123.4	0.64598
4707.4	2.1243	2124.3	0.64598
4705.7	2.1251	2125.1	0.64596
4703.7	2.1260	2126.0	0.64586
4701.7	2.1269	2126.9	0.64570
4699.7	2.1278	2127.8	0.64567
4697.9	2.1286	2128.6	0.64569
4695.9	2.1295	2129.5	0.64586
4694.0	2.1304	2130.4	0.64598
4692.0	2.1313	2131.3	0.64599
4690.2	2.1321	2132.1	0.64611
4688.2	2.1330	2133.0	0.64637
4686.3	2.1339	2133.9	0.64639
4684.3	2.1348	2134.8	0.64635
4682.5	2.1356	2135.6	0.64631
4680.6	2.1365	2136.5	0.64626
