Wavenumber (cm-1)	Wavelength (Âµm)	Wavelength (nm)	SynOl_Fo90
33333	0.30000	300.00	0.23606
32787	0.30500	305.00	0.24717
32258	0.31000	310.00	0.25633
31746	0.31500	315.00	0.26810
31250	0.32000	320.00	0.27910
30769	0.32500	325.00	0.29213
30303	0.33000	330.00	0.30760
29851	0.33500	335.00	0.32251
29412	0.34000	340.00	0.33505
28986	0.34500	345.00	0.34852
28571	0.35000	350.00	0.36009
28169	0.35500	355.00	0.37242
27778	0.36000	360.00	0.38255
27397	0.36500	365.00	0.39292
27027	0.37000	370.00	0.40186
26667	0.37500	375.00	0.40975
26316	0.38000	380.00	0.41685
25974	0.38500	385.00	0.42438
25641	0.39000	390.00	0.43144
25316	0.39500	395.00	0.43822
25000	0.40000	400.00	0.44414
24691	0.40500	405.00	0.45007
24390	0.41000	410.00	0.45435
24096	0.41500	415.00	0.45914
23810	0.42000	420.00	0.46532
23529	0.42500	425.00	0.47118
23256	0.43000	430.00	0.47584
22989	0.43500	435.00	0.48074
22727	0.44000	440.00	0.48557
22472	0.44500	445.00	0.48899
22222	0.45000	450.00	0.49150
21978	0.45500	455.00	0.49477
21739	0.46000	460.00	0.49885
21505	0.46500	465.00	0.50261
21277	0.47000	470.00	0.50594
21053	0.47500	475.00	0.51070
20833	0.48000	480.00	0.51514
20619	0.48500	485.00	0.52030
20408	0.49000	490.00	0.52473
20202	0.49500	495.00	0.52836
20000	0.50000	500.00	0.53357
19802	0.50500	505.00	0.53354
19608	0.51000	510.00	0.53646
19417	0.51500	515.00	0.54138
19231	0.52000	520.00	0.54621
19048	0.52500	525.00	0.54989
18868	0.53000	530.00	0.55429
18692	0.53500	535.00	0.55855
18519	0.54000	540.00	0.56361
18349	0.54500	545.00	0.56945
18182	0.55000	550.00	0.57519
18018	0.55500	555.00	0.57902
17857	0.56000	560.00	0.58373
17699	0.56500	565.00	0.58774
17544	0.57000	570.00	0.59186
17391	0.57500	575.00	0.59327
17241	0.58000	580.00	0.59454
17094	0.58500	585.00	0.59573
16949	0.59000	590.00	0.59549
16807	0.59500	595.00	0.59518
16667	0.60000	600.00	0.59542
16529	0.60500	605.00	0.59279
16393	0.61000	610.00	0.59344
16260	0.61500	615.00	0.59269
16129	0.62000	620.00	0.59275
16000	0.62500	625.00	0.59206
15873	0.63000	630.00	0.59128
15748	0.63500	635.00	0.58997
15625	0.64000	640.00	0.58950
15504	0.64500	645.00	0.58904
15385	0.65000	650.00	0.58711
15267	0.65500	655.00	0.58517
15152	0.66000	660.00	0.58366
15038	0.66500	665.00	0.58117
14925	0.67000	670.00	0.57947
14815	0.67500	675.00	0.57738
14706	0.68000	680.00	0.57468
14599	0.68500	685.00	0.57221
14493	0.69000	690.00	0.56969
14388	0.69500	695.00	0.56716
14286	0.70000	700.00	0.56435
14184	0.70500	705.00	0.56188
14085	0.71000	710.00	0.55932
13986	0.71500	715.00	0.55650
13889	0.72000	720.00	0.55387
13793	0.72500	725.00	0.55125
13699	0.73000	730.00	0.54836
13605	0.73500	735.00	0.54574
13514	0.74000	740.00	0.54294
13423	0.74500	745.00	0.54034
13333	0.75000	750.00	0.53708
13245	0.75500	755.00	0.53429
13158	0.76000	760.00	0.53248
13072	0.76500	765.00	0.52865
12987	0.77000	770.00	0.52591
12903	0.77500	775.00	0.52275
12821	0.78000	780.00	0.51999
12739	0.78500	785.00	0.51682
12658	0.79000	790.00	0.51395
12579	0.79500	795.00	0.51067
12500	0.80000	800.00	0.50847
12422	0.80500	805.00	0.50495
12346	0.81000	810.00	0.50233
12270	0.81500	815.00	0.49928
12195	0.82000	820.00	0.49718
12121	0.82500	825.00	0.49306
12048	0.83000	830.00	0.49067
11976	0.83500	835.00	0.48816
11905	0.84000	840.00	0.48543
11834	0.84500	845.00	0.48381
11765	0.85000	850.00	0.48136
11696	0.85500	855.00	0.47867
11628	0.86000	860.00	0.47724
11561	0.86500	865.00	0.47611
11494	0.87000	870.00	0.47320
11429	0.87500	875.00	0.47160
11364	0.88000	880.00	0.46996
11299	0.88500	885.00	0.46882
11236	0.89000	890.00	0.46741
11173	0.89500	895.00	0.46662
11111	0.90000	900.00	0.46494
11050	0.90500	905.00	0.46327
10989	0.91000	910.00	0.46267
10929	0.91500	915.00	0.46159
10870	0.92000	920.00	0.46064
10811	0.92500	925.00	0.45972
10753	0.93000	930.00	0.45898
10695	0.93500	935.00	0.45768
10638	0.94000	940.00	0.45685
10582	0.94500	945.00	0.45571
10526	0.95000	950.00	0.45479
10471	0.95500	955.00	0.45160
10417	0.96000	960.00	0.45064
10363	0.96500	965.00	0.45011
10309	0.97000	970.00	0.44846
10256	0.97500	975.00	0.44784
10204	0.98000	980.00	0.44614
10152	0.98500	985.00	0.44511
10101	0.99000	990.00	0.44373
10050	0.99500	995.00	0.44240
10000	1.0000	1000.0	0.44126
9950.2	1.0050	1005.0	0.44013
9901.0	1.0100	1010.0	0.43923
9852.2	1.0150	1015.0	0.43728
9803.9	1.0200	1020.0	0.43773
9756.1	1.0250	1025.0	0.43675
9708.7	1.0300	1030.0	0.43607
9661.8	1.0350	1035.0	0.43549
9615.4	1.0400	1040.0	0.43655
9569.4	1.0450	1045.0	0.43664
9523.8	1.0500	1050.0	0.43636
9478.7	1.0550	1055.0	0.43757
9434.0	1.0600	1060.0	0.43867
9389.7	1.0650	1065.0	0.43915
9345.8	1.0700	1070.0	0.44059
9302.3	1.0750	1075.0	0.44250
9259.3	1.0800	1080.0	0.44422
9216.6	1.0850	1085.0	0.44664
9174.3	1.0900	1090.0	0.44893
9132.4	1.0950	1095.0	0.45145
9090.9	1.1000	1100.0	0.45393
9049.8	1.1050	1105.0	0.45620
9009.0	1.1100	1110.0	0.45914
8968.6	1.1150	1115.0	0.46155
8928.6	1.1200	1120.0	0.46351
8888.9	1.1250	1125.0	0.46507
8849.6	1.1300	1130.0	0.46773
8810.6	1.1350	1135.0	0.47180
8771.9	1.1400	1140.0	0.47269
8733.6	1.1450	1145.0	0.47566
8695.7	1.1500	1150.0	0.47692
8658.0	1.1550	1155.0	0.47788
8620.7	1.1600	1160.0	0.48111
8583.7	1.1650	1165.0	0.48325
8547.0	1.1700	1170.0	0.48479
8510.6	1.1750	1175.0	0.48632
8474.6	1.1800	1180.0	0.48876
8438.8	1.1850	1185.0	0.48962
8403.4	1.1900	1190.0	0.49209
8368.2	1.1950	1195.0	0.49389
8333.3	1.2000	1200.0	0.49513
8298.8	1.2050	1205.0	0.49638
8264.5	1.2100	1210.0	0.49880
8230.5	1.2150	1215.0	0.49817
8196.7	1.2200	1220.0	0.49949
8163.3	1.2250	1225.0	0.50182
8130.1	1.2300	1230.0	0.50258
8097.2	1.2350	1235.0	0.50490
8064.5	1.2400	1240.0	0.50590
8032.1	1.2450	1245.0	0.50839
8000.0	1.2500	1250.0	0.50919
7968.1	1.2550	1255.0	0.51125
7936.5	1.2600	1260.0	0.51227
7905.1	1.2650	1265.0	0.51395
7874.0	1.2700	1270.0	0.51521
7843.1	1.2750	1275.0	0.51684
7812.5	1.2800	1280.0	0.51787
7782.1	1.2850	1285.0	0.51909
7751.9	1.2900	1290.0	0.52117
7722.0	1.2950	1295.0	0.52271
7692.3	1.3000	1300.0	0.52444
7662.8	1.3050	1305.0	0.52586
7633.6	1.3100	1310.0	0.52717
7604.6	1.3150	1315.0	0.52914
7575.8	1.3200	1320.0	0.53168
7547.2	1.3250	1325.0	0.53283
7518.8	1.3300	1330.0	0.53562
7490.6	1.3350	1335.0	0.53773
7462.7	1.3400	1340.0	0.53946
7434.9	1.3450	1345.0	0.54153
7407.4	1.3500	1350.0	0.54364
7380.1	1.3550	1355.0	0.54555
7352.9	1.3600	1360.0	0.54750
7326.0	1.3650	1365.0	0.54900
7299.3	1.3700	1370.0	0.55053
7272.7	1.3750	1375.0	0.55222
7246.4	1.3800	1380.0	0.55443
7220.2	1.3850	1385.0	0.55665
7194.2	1.3900	1390.0	0.55929
7168.5	1.3950	1395.0	0.56232
7142.9	1.4000	1400.0	0.56528
7117.4	1.4050	1405.0	0.56779
7092.2	1.4100	1410.0	0.57041
7067.1	1.4150	1415.0	0.57244
7042.3	1.4200	1420.0	0.57392
7017.5	1.4250	1425.0	0.57517
6993.0	1.4300	1430.0	0.57664
6968.6	1.4350	1435.0	0.57825
6944.4	1.4400	1440.0	0.58008
6920.4	1.4450	1445.0	0.58222
6896.6	1.4500	1450.0	0.58462
6872.9	1.4550	1455.0	0.58664
6849.3	1.4600	1460.0	0.58912
6825.9	1.4650	1465.0	0.59132
6802.7	1.4700	1470.0	0.59322
6779.7	1.4750	1475.0	0.59297
6756.8	1.4800	1480.0	0.59574
6734.0	1.4850	1485.0	0.59816
6711.4	1.4900	1490.0	0.60006
6689.0	1.4950	1495.0	0.60236
6666.7	1.5000	1500.0	0.60420
6644.5	1.5050	1505.0	0.60628
6622.5	1.5100	1510.0	0.60882
6600.7	1.5150	1515.0	0.61011
6578.9	1.5200	1520.0	0.61164
6557.4	1.5250	1525.0	0.61309
6535.9	1.5300	1530.0	0.61553
6514.7	1.5350	1535.0	0.61740
6493.5	1.5400	1540.0	0.61970
6472.5	1.5450	1545.0	0.62079
6451.6	1.5500	1550.0	0.62271
6430.9	1.5550	1555.0	0.62355
6410.3	1.5600	1560.0	0.62594
6389.8	1.5650	1565.0	0.62714
6369.4	1.5700	1570.0	0.62820
6349.2	1.5750	1575.0	0.63022
6329.1	1.5800	1580.0	0.63164
6309.1	1.5850	1585.0	0.63275
6289.3	1.5900	1590.0	0.63422
6269.6	1.5950	1595.0	0.63568
6250.0	1.6000	1600.0	0.63655
6230.5	1.6050	1605.0	0.63824
6211.2	1.6100	1610.0	0.63888
6192.0	1.6150	1615.0	0.64091
6172.8	1.6200	1620.0	0.64233
6153.8	1.6250	1625.0	0.64424
6135.0	1.6300	1630.0	0.64466
6116.2	1.6350	1635.0	0.64606
6097.6	1.6400	1640.0	0.64672
6079.0	1.6450	1645.0	0.64791
6060.6	1.6500	1650.0	0.64921
6042.3	1.6550	1655.0	0.65037
6024.1	1.6600	1660.0	0.65142
6006.0	1.6650	1665.0	0.65246
5988.0	1.6700	1670.0	0.65268
5970.1	1.6750	1675.0	0.65477
5952.4	1.6800	1680.0	0.65662
5934.7	1.6850	1685.0	0.65600
5917.2	1.6900	1690.0	0.65732
5899.7	1.6950	1695.0	0.65799
5882.4	1.7000	1700.0	0.65883
5865.1	1.7050	1705.0	0.65941
5848.0	1.7100	1710.0	0.66128
5830.9	1.7150	1715.0	0.66224
5814.0	1.7200	1720.0	0.66384
5797.1	1.7250	1725.0	0.66472
5780.3	1.7300	1730.0	0.66575
5763.7	1.7350	1735.0	0.66600
5747.1	1.7400	1740.0	0.66706
5730.7	1.7450	1745.0	0.66771
5714.3	1.7500	1750.0	0.66853
5698.0	1.7550	1755.0	0.66959
5681.8	1.7600	1760.0	0.67098
5665.7	1.7650	1765.0	0.67073
5649.7	1.7700	1770.0	0.67152
5633.8	1.7750	1775.0	0.67246
5618.0	1.7800	1780.0	0.67269
5602.2	1.7850	1785.0	0.67359
5586.6	1.7900	1790.0	0.67460
5571.0	1.7950	1795.0	0.67450
5555.6	1.8000	1800.0	0.67530
5552.2	1.8011	1801.1	0.67539
5550.3	1.8017	1801.7	0.67515
5548.5	1.8023	1802.3	0.67516
5546.6	1.8029	1802.9	0.67511
5544.5	1.8036	1803.6	0.67515
5542.6	1.8042	1804.2	0.67522
5540.8	1.8048	1804.8	0.67531
5538.6	1.8055	1805.5	0.67523
5536.8	1.8061	1806.1	0.67535
5535.0	1.8067	1806.7	0.67532
5533.1	1.8073	1807.3	0.67514
5531.0	1.8080	1808.0	0.67514
5529.1	1.8086	1808.6	0.67541
5527.3	1.8092	1809.2	0.67554
5525.2	1.8099	1809.9	0.67561
5523.3	1.8105	1810.5	0.67562
5521.5	1.8111	1811.1	0.67561
5519.4	1.8118	1811.8	0.67550
5517.5	1.8124	1812.4	0.67559
5515.7	1.8130	1813.0	0.67585
5513.6	1.8137	1813.7	0.67600
5511.8	1.8143	1814.3	0.67597
5509.9	1.8149	1814.9	0.67600
5507.8	1.8156	1815.6	0.67624
5506.0	1.8162	1816.2	0.67625
5504.2	1.8168	1816.8	0.67621
5502.1	1.8175	1817.5	0.67646
5500.2	1.8181	1818.1	0.67652
5498.1	1.8188	1818.8	0.67642
5496.3	1.8194	1819.4	0.67618
5494.5	1.8200	1820.0	0.67612
5492.4	1.8207	1820.7	0.67618
5490.6	1.8213	1821.3	0.67619
5488.8	1.8219	1821.9	0.67624
5486.7	1.8226	1822.6	0.67636
5484.9	1.8232	1823.2	0.67639
5482.8	1.8239	1823.9	0.67658
5481.0	1.8245	1824.5	0.67660
5478.9	1.8252	1825.2	0.67675
5477.1	1.8258	1825.8	0.67679
5475.3	1.8264	1826.4	0.67679
5473.2	1.8271	1827.1	0.67661
5471.4	1.8277	1827.7	0.67674
5469.3	1.8284	1828.4	0.67686
5467.5	1.8290	1829.0	0.67693
5465.4	1.8297	1829.7	0.67706
5463.6	1.8303	1830.3	0.67700
5461.5	1.8310	1831.0	0.67676
5459.7	1.8316	1831.6	0.67666
5457.6	1.8323	1832.3	0.67671
5455.8	1.8329	1832.9	0.67684
5453.8	1.8336	1833.6	0.67687
5452.0	1.8342	1834.2	0.67707
5450.2	1.8348	1834.8	0.67711
5448.1	1.8355	1835.5	0.67710
5446.0	1.8362	1836.2	0.67720
5444.3	1.8368	1836.8	0.67735
5442.5	1.8374	1837.4	0.67750
5440.4	1.8381	1838.1	0.67750
5438.3	1.8388	1838.8	0.67729
5436.6	1.8394	1839.4	0.67730
5434.5	1.8401	1840.1	0.67734
5432.7	1.8407	1840.7	0.67742
5430.7	1.8414	1841.4	0.67740
5428.9	1.8420	1842.0	0.67765
5426.8	1.8427	1842.7	0.67767
5425.1	1.8433	1843.3	0.67756
5423.0	1.8440	1844.0	0.67745
5421.2	1.8446	1844.6	0.67752
5419.2	1.8453	1845.3	0.67765
5417.4	1.8459	1845.9	0.67777
5415.4	1.8466	1846.6	0.67789
5413.3	1.8473	1847.3	0.67789
5411.5	1.8479	1847.9	0.67781
5409.5	1.8486	1848.6	0.67811
5407.5	1.8493	1849.3	0.67808
5405.7	1.8499	1849.9	0.67807
5403.7	1.8506	1850.6	0.67806
5401.9	1.8512	1851.2	0.67794
5399.9	1.8519	1851.9	0.67796
5397.8	1.8526	1852.6	0.67802
5396.1	1.8532	1853.2	0.67802
5394.0	1.8539	1853.9	0.67813
5392.3	1.8545	1854.5	0.67833
5390.3	1.8552	1855.2	0.67854
5388.2	1.8559	1855.9	0.67850
5386.5	1.8565	1856.5	0.67836
5384.4	1.8572	1857.2	0.67844
5382.4	1.8579	1857.9	0.67845
5380.7	1.8585	1858.5	0.67828
5378.7	1.8592	1859.2	0.67834
5376.6	1.8599	1859.9	0.67860
5374.9	1.8605	1860.5	0.67877
5372.9	1.8612	1861.2	0.67873
5370.9	1.8619	1861.9	0.67852
5369.1	1.8625	1862.5	0.67845
5367.1	1.8632	1863.2	0.67856
5365.1	1.8639	1863.9	0.67867
5363.4	1.8645	1864.5	0.67883
5361.4	1.8652	1865.2	0.67879
5359.3	1.8659	1865.9	0.67885
5357.3	1.8666	1866.6	0.67887
5355.6	1.8672	1867.2	0.67898
5353.6	1.8679	1867.9	0.67896
5351.6	1.8686	1868.6	0.67892
5349.6	1.8693	1869.3	0.67889
5347.9	1.8699	1869.9	0.67913
5345.9	1.8706	1870.6	0.67936
5343.9	1.8713	1871.3	0.67940
5342.2	1.8719	1871.9	0.67929
5340.2	1.8726	1872.6	0.67938
5338.2	1.8733	1873.3	0.67952
5336.2	1.8740	1874.0	0.67951
5334.2	1.8747	1874.7	0.67925
5332.5	1.8753	1875.3	0.67934
5330.5	1.8760	1876.0	0.67938
5328.5	1.8767	1876.7	0.67944
5326.5	1.8774	1877.4	0.67945
5324.5	1.8781	1878.1	0.67961
5322.8	1.8787	1878.7	0.67976
5320.8	1.8794	1879.4	0.67964
5318.9	1.8801	1880.1	0.67945
5316.9	1.8808	1880.8	0.67942
5314.9	1.8815	1881.5	0.67943
5313.2	1.8821	1882.1	0.67952
5311.2	1.8828	1882.8	0.67962
5309.3	1.8835	1883.5	0.67987
5307.3	1.8842	1884.2	0.68010
5305.3	1.8849	1884.9	0.67997
5303.4	1.8856	1885.6	0.67994
5301.4	1.8863	1886.3	0.68005
5299.7	1.8869	1886.9	0.68002
5297.7	1.8876	1887.6	0.67999
5295.8	1.8883	1888.3	0.68002
5293.8	1.8890	1889.0	0.68009
5291.8	1.8897	1889.7	0.68018
5289.9	1.8904	1890.4	0.68021
5287.9	1.8911	1891.1	0.68011
5286.0	1.8918	1891.8	0.68022
5284.3	1.8924	1892.4	0.68031
5282.3	1.8931	1893.1	0.68030
5280.4	1.8938	1893.8	0.68029
5278.4	1.8945	1894.5	0.68038
5276.5	1.8952	1895.2	0.68043
5274.5	1.8959	1895.9	0.68057
5272.6	1.8966	1896.6	0.68064
5270.6	1.8973	1897.3	0.68059
5268.7	1.8980	1898.0	0.68059
5266.8	1.8987	1898.7	0.68076
5264.8	1.8994	1899.4	0.68081
5262.9	1.9001	1900.1	0.68065
5260.9	1.9008	1900.8	0.68051
5259.0	1.9015	1901.5	0.68060
5257.1	1.9022	1902.2	0.68053
5255.1	1.9029	1902.9	0.68049
5253.2	1.9036	1903.6	0.68066
5251.3	1.9043	1904.3	0.68092
5249.3	1.9050	1905.0	0.68101
5247.4	1.9057	1905.7	0.68117
5245.5	1.9064	1906.4	0.68123
5243.6	1.9071	1907.1	0.68109
5241.6	1.9078	1907.8	0.68112
5239.7	1.9085	1908.5	0.68117
5237.8	1.9092	1909.2	0.68118
5235.9	1.9099	1909.9	0.68127
5234.0	1.9106	1910.6	0.68134
5232.0	1.9113	1911.3	0.68133
5230.1	1.9120	1912.0	0.68133
5228.2	1.9127	1912.7	0.68137
5226.3	1.9134	1913.4	0.68141
5224.4	1.9141	1914.1	0.68151
5222.5	1.9148	1914.8	0.68138
5220.6	1.9155	1915.5	0.68130
5218.7	1.9162	1916.2	0.68142
5216.8	1.9169	1916.9	0.68158
5214.9	1.9176	1917.6	0.68162
5212.9	1.9183	1918.3	0.68157
5210.8	1.9191	1919.1	0.68159
5208.9	1.9198	1919.8	0.68193
5207.0	1.9205	1920.5	0.68202
5205.1	1.9212	1921.2	0.68183
5203.2	1.9219	1921.9	0.68168
5201.3	1.9226	1922.6	0.68182
5199.4	1.9233	1923.3	0.68200
5197.2	1.9241	1924.1	0.68216
5195.3	1.9248	1924.8	0.68224
5193.5	1.9255	1925.5	0.68225
5191.6	1.9262	1926.2	0.68225
5189.7	1.9269	1926.9	0.68242
5187.8	1.9276	1927.6	0.68239
5185.9	1.9283	1928.3	0.68241
5183.8	1.9291	1929.1	0.68249
5181.9	1.9298	1929.8	0.68246
5180.0	1.9305	1930.5	0.68256
5178.1	1.9312	1931.2	0.68263
5176.3	1.9319	1931.9	0.68268
5174.1	1.9327	1932.7	0.68275
5172.2	1.9334	1933.4	0.68290
5170.4	1.9341	1934.1	0.68300
5168.5	1.9348	1934.8	0.68304
5166.6	1.9355	1935.5	0.68312
5164.5	1.9363	1936.3	0.68308
5162.6	1.9370	1937.0	0.68304
5160.8	1.9377	1937.7	0.68304
5158.9	1.9384	1938.4	0.68311
5156.8	1.9392	1939.2	0.68327
5154.9	1.9399	1939.9	0.68343
5153.0	1.9406	1940.6	0.68339
5151.2	1.9413	1941.3	0.68328
5149.1	1.9421	1942.1	0.68332
5147.2	1.9428	1942.8	0.68361
5145.4	1.9435	1943.5	0.68351
5143.2	1.9443	1944.3	0.68347
5141.4	1.9450	1945.0	0.68365
5139.5	1.9457	1945.7	0.68393
5137.7	1.9464	1946.4	0.68394
5135.6	1.9472	1947.2	0.68399
5133.7	1.9479	1947.9	0.68399
5131.9	1.9486	1948.6	0.68401
5129.8	1.9494	1949.4	0.68415
5127.9	1.9501	1950.1	0.68414
5126.1	1.9508	1950.8	0.68409
5124.0	1.9516	1951.6	0.68425
5122.2	1.9523	1952.3	0.68434
5120.3	1.9530	1953.0	0.68433
5118.2	1.9538	1953.8	0.68441
5116.4	1.9545	1954.5	0.68451
5114.3	1.9553	1955.3	0.68445
5112.5	1.9560	1956.0	0.68464
5110.6	1.9567	1956.7	0.68470
5108.6	1.9575	1957.5	0.68473
5106.7	1.9582	1958.2	0.68497
5104.9	1.9589	1958.9	0.68493
5102.8	1.9597	1959.7	0.68465
5101.0	1.9604	1960.4	0.68476
5098.9	1.9612	1961.2	0.68491
5097.1	1.9619	1961.9	0.68509
5095.0	1.9627	1962.7	0.68517
5093.2	1.9634	1963.4	0.68515
5091.4	1.9641	1964.1	0.68517
5089.3	1.9649	1964.9	0.68530
5087.5	1.9656	1965.6	0.68540
5085.4	1.9664	1966.4	0.68561
5083.6	1.9671	1967.1	0.68566
5081.6	1.9679	1967.9	0.68568
5079.8	1.9686	1968.6	0.68560
5077.7	1.9694	1969.4	0.68554
5075.9	1.9701	1970.1	0.68567
5074.1	1.9708	1970.8	0.68573
5072.0	1.9716	1971.6	0.68564
5070.2	1.9723	1972.3	0.68585
5068.2	1.9731	1973.1	0.68608
5066.4	1.9738	1973.8	0.68613
5064.3	1.9746	1974.6	0.68617
5062.3	1.9754	1975.4	0.68635
5060.5	1.9761	1976.1	0.68641
5058.4	1.9769	1976.9	0.68631
5056.6	1.9776	1977.6	0.68618
5054.6	1.9784	1978.4	0.68633
5052.8	1.9791	1979.1	0.68656
5050.8	1.9799	1979.9	0.68666
5049.0	1.9806	1980.6	0.68654
5046.9	1.9814	1981.4	0.68658
5044.9	1.9822	1982.2	0.68668
5043.1	1.9829	1982.9	0.68673
5041.1	1.9837	1983.7	0.68691
5039.3	1.9844	1984.4	0.68707
5037.3	1.9852	1985.2	0.68708
5035.5	1.9859	1985.9	0.68722
5033.5	1.9867	1986.7	0.68728
5031.4	1.9875	1987.5	0.68722
5029.7	1.9882	1988.2	0.68722
5027.7	1.9890	1989.0	0.68728
5025.6	1.9898	1989.8	0.68732
5023.9	1.9905	1990.5	0.68744
5021.8	1.9913	1991.3	0.68751
5019.8	1.9921	1992.1	0.68769
5018.1	1.9928	1992.8	0.68780
5016.1	1.9936	1993.6	0.68781
5014.3	1.9943	1994.3	0.68782
5012.3	1.9951	1995.1	0.68787
5010.3	1.9959	1995.9	0.68791
5008.3	1.9967	1996.7	0.68799
5006.5	1.9974	1997.4	0.68803
5004.5	1.9982	1998.2	0.68819
5002.5	1.9990	1999.0	0.68832
5000.7	1.9997	1999.7	0.68827
4998.8	2.0005	2000.5	0.68834
4996.8	2.0013	2001.3	0.68849
4994.8	2.0021	2002.1	0.68844
4993.0	2.0028	2002.8	0.68860
4991.0	2.0036	2003.6	0.68866
4989.0	2.0044	2004.4	0.68876
4987.0	2.0052	2005.2	0.68900
4985.3	2.0059	2005.9	0.68915
4983.3	2.0067	2006.7	0.68904
4981.3	2.0075	2007.5	0.68907
4979.3	2.0083	2008.3	0.68915
4977.6	2.0090	2009.0	0.68923
4975.6	2.0098	2009.8	0.68928
4973.6	2.0106	2010.6	0.68940
4971.7	2.0114	2011.4	0.68934
4969.7	2.0122	2012.2	0.68942
4968.0	2.0129	2012.9	0.68976
4966.0	2.0137	2013.7	0.68982
4964.0	2.0145	2014.5	0.68976
4962.0	2.0153	2015.3	0.69012
4960.1	2.0161	2016.1	0.69034
4958.3	2.0168	2016.8	0.69023
4956.4	2.0176	2017.6	0.69018
4954.4	2.0184	2018.4	0.69039
4952.5	2.0192	2019.2	0.69048
4950.5	2.0200	2020.0	0.69045
4948.5	2.0208	2020.8	0.69050
4946.6	2.0216	2021.6	0.69074
4944.6	2.0224	2022.4	0.69078
4942.7	2.0232	2023.2	0.69097
4941.0	2.0239	2023.9	0.69110
4939.0	2.0247	2024.7	0.69114
4937.1	2.0255	2025.5	0.69108
4935.1	2.0263	2026.3	0.69096
4933.2	2.0271	2027.1	0.69095
4931.2	2.0279	2027.9	0.69126
4929.3	2.0287	2028.7	0.69154
4927.3	2.0295	2029.5	0.69161
4925.4	2.0303	2030.3	0.69170
4923.4	2.0311	2031.1	0.69171
4921.5	2.0319	2031.9	0.69171
4919.6	2.0327	2032.7	0.69183
4917.6	2.0335	2033.5	0.69193
4915.7	2.0343	2034.3	0.69215
4913.8	2.0351	2035.1	0.69207
4911.8	2.0359	2035.9	0.69215
4909.9	2.0367	2036.7	0.69237
4908.0	2.0375	2037.5	0.69246
4906.0	2.0383	2038.3	0.69249
4904.1	2.0391	2039.1	0.69268
4902.2	2.0399	2039.9	0.69287
4900.3	2.0407	2040.7	0.69291
4898.4	2.0415	2041.5	0.69293
4896.4	2.0423	2042.3	0.69314
4894.5	2.0431	2043.1	0.69304
4892.6	2.0439	2043.9	0.69308
4890.7	2.0447	2044.7	0.69324
4888.8	2.0455	2045.5	0.69334
4886.9	2.0463	2046.3	0.69337
4885.0	2.0471	2047.1	0.69354
4883.1	2.0479	2047.9	0.69367
4881.1	2.0487	2048.7	0.69375
4879.2	2.0495	2049.5	0.69384
4877.1	2.0504	2050.4	0.69393
4875.2	2.0512	2051.2	0.69398
4873.3	2.0520	2052.0	0.69404
4871.4	2.0528	2052.8	0.69399
4869.5	2.0536	2053.6	0.69416
4867.6	2.0544	2054.4	0.69436
4865.7	2.0552	2055.2	0.69452
4863.8	2.0560	2056.0	0.69462
4861.7	2.0569	2056.9	0.69471
4859.8	2.0577	2057.7	0.69488
4857.9	2.0585	2058.5	0.69504
4856.0	2.0593	2059.3	0.69504
4854.1	2.0601	2060.1	0.69507
4852.2	2.0609	2060.9	0.69506
4850.1	2.0618	2061.8	0.69528
4848.2	2.0626	2062.6	0.69549
4846.4	2.0634	2063.4	0.69563
4844.5	2.0642	2064.2	0.69565
4842.4	2.0651	2065.1	0.69576
4840.5	2.0659	2065.9	0.69593
4838.6	2.0667	2066.7	0.69604
4836.8	2.0675	2067.5	0.69595
4834.9	2.0683	2068.3	0.69597
4832.8	2.0692	2069.2	0.69615
4830.9	2.0700	2070.0	0.69632
4829.1	2.0708	2070.8	0.69651
4827.2	2.0716	2071.6	0.69665
4825.1	2.0725	2072.5	0.69673
4823.2	2.0733	2073.3	0.69683
4821.4	2.0741	2074.1	0.69691
4819.3	2.0750	2075.0	0.69707
4817.4	2.0758	2075.8	0.69713
4815.6	2.0766	2076.6	0.69714
4813.5	2.0775	2077.5	0.69721
4811.6	2.0783	2078.3	0.69748
4809.8	2.0791	2079.1	0.69767
