Wavelength (Âµm)	ALH-271, spot f
0.30000	0.057685
0.30500	0.060534
0.31000	0.062072
0.31500	0.064111
0.32000	0.068480
0.32500	0.071183
0.33000	0.074777
0.33500	0.078965
0.34000	0.082435
0.34500	0.086173
0.35000	0.090999
0.35500	0.094995
0.36000	0.099534
0.36500	0.10473
0.37000	0.10834
0.37500	0.11285
0.38000	0.11743
0.38500	0.12090
0.39000	0.12473
0.39500	0.12808
0.40000	0.13209
0.40500	0.13590
0.41000	0.13773
0.41500	0.14179
0.42000	0.14447
0.42500	0.14588
0.43000	0.14743
0.43500	0.14920
0.44000	0.15044
0.44500	0.15162
0.45000	0.15320
0.45500	0.15445
0.46000	0.15638
0.46500	0.15772
0.47000	0.15935
0.47500	0.16070
0.48000	0.16214
0.48500	0.16366
0.49000	0.16520
0.49500	0.16720
0.50000	0.16865
0.50500	0.16756
0.51000	0.17121
0.51500	0.17481
0.52000	0.17717
0.52500	0.17934
0.53000	0.18044
0.53500	0.18155
0.54000	0.18194
0.54500	0.18169
0.55000	0.18254
0.55500	0.18381
0.56000	0.18538
0.56500	0.18682
0.57000	0.18745
0.57500	0.18798
0.58000	0.18889
0.58500	0.18952
0.59000	0.19001
0.59500	0.19022
0.60000	0.19047
0.60500	0.19097
0.61000	0.19094
0.61500	0.19169
0.62000	0.19188
0.62500	0.19180
0.63000	0.19213
0.63500	0.19201
0.64000	0.19253
0.64500	0.19217
0.65000	0.19225
0.65500	0.19177
0.66000	0.19171
0.66500	0.19132
0.67000	0.19140
0.67500	0.19115
0.68000	0.19208
0.68500	0.19122
0.69000	0.19072
0.69500	0.18999
0.70000	0.18974
0.70500	0.18920
0.71000	0.18930
0.71500	0.18837
0.72000	0.18813
0.72500	0.18722
0.73000	0.18564
0.73500	0.18414
0.74000	0.18288
0.74500	0.18143
0.75000	0.17957
0.75500	0.17739
0.76000	0.17253
0.76500	0.16979
0.77000	0.16624
0.77500	0.16308
0.78000	0.15879
0.78500	0.15483
0.79000	0.15049
0.79500	0.14595
0.80000	0.14078
0.80500	0.13604
0.81000	0.13146
0.81500	0.12724
0.82000	0.12274
0.82500	0.11866
0.83000	0.11439
0.83500	0.11083
0.84000	0.10715
0.84500	0.10359
0.85000	0.10099
0.85500	0.097655
0.86000	0.095354
0.86500	0.092999
0.87000	0.090642
0.87500	0.088341
0.88000	0.086438
0.88500	0.084687
0.89000	0.082984
0.89500	0.081472
0.90000	0.080072
0.90500	0.079474
0.91000	0.078286
0.91500	0.077869
0.92000	0.077461
0.92500	0.077081
0.93000	0.076681
0.93500	0.076998
0.94000	0.077151
0.94500	0.077508
0.95000	0.078030
0.95500	0.078737
0.96000	0.079724
0.96500	0.080457
0.97000	0.082012
0.97500	0.083375
0.98000	0.084670
0.98500	0.086661
0.99000	0.088489
0.99500	0.090660
1.0000	0.092736
1.0050	0.095211
1.0100	0.097521
1.0150	0.10019
1.0200	0.10300
1.0250	0.10572
1.0300	0.10851
1.0350	0.11154
1.0400	0.11407
1.0450	0.11677
1.0500	0.11998
1.0550	0.12234
1.0600	0.12485
1.0650	0.12715
1.0700	0.12933
1.0750	0.13136
1.0800	0.13319
1.0850	0.13491
1.0900	0.13645
1.0950	0.13821
1.1000	0.13943
1.1050	0.14065
1.1100	0.14165
1.1150	0.14270
1.1200	0.14383
1.1250	0.14428
1.1300	0.14502
1.1350	0.14538
1.1400	0.14615
1.1450	0.14650
1.1500	0.14699
1.1550	0.14771
1.1600	0.14780
1.1650	0.14813
1.1700	0.14827
1.1750	0.14885
1.1800	0.14954
1.1850	0.14929
1.1900	0.14985
1.1950	0.15039
1.2000	0.15071
1.2050	0.15134
1.2100	0.15160
1.2150	0.15227
1.2200	0.15254
1.2250	0.15270
1.2300	0.15270
1.2350	0.15301
1.2400	0.15347
1.2450	0.15353
1.2500	0.15371
1.2550	0.15430
1.2600	0.15404
1.2650	0.15474
1.2700	0.15488
1.2750	0.15487
1.2800	0.15519
1.2850	0.15562
1.2900	0.15592
1.2950	0.15634
1.3000	0.15669
1.3050	0.15673
1.3100	0.15713
1.3150	0.15749
1.3200	0.15778
1.3250	0.15833
1.3300	0.15820
1.3350	0.15870
1.3400	0.15884
1.3450	0.15887
1.3500	0.15875
1.3550	0.15878
1.3600	0.15857
1.3650	0.15924
1.3700	0.15911
1.3750	0.15946
1.3800	0.15888
1.3850	0.15985
1.3900	0.15946
1.3950	0.15874
1.4000	0.15830
1.4050	0.15803
1.4100	0.15847
1.4150	0.15809
1.4200	0.15778
1.4250	0.15766
1.4300	0.15762
1.4350	0.15704
1.4400	0.15648
1.4450	0.15595
1.4500	0.15547
1.4550	0.15519
1.4600	0.15439
1.4650	0.15396
1.4700	0.15306
1.4750	0.15263
1.4800	0.15184
1.4850	0.15095
1.4900	0.15049
1.4950	0.14946
1.5000	0.14881
1.5050	0.14795
1.5100	0.14706
1.5150	0.14626
1.5200	0.14530
1.5250	0.14439
1.5300	0.14331
1.5350	0.14212
1.5400	0.14131
1.5450	0.14035
1.5500	0.13910
1.5550	0.13821
1.5600	0.13691
1.5650	0.13612
1.5700	0.13430
1.5750	0.13337
1.5800	0.13246
1.5850	0.13118
1.5900	0.12980
1.5950	0.12908
1.6000	0.12825
1.6050	0.12669
1.6100	0.12580
1.6150	0.12482
1.6200	0.12383
1.6250	0.12276
1.6300	0.12142
1.6350	0.12008
1.6400	0.11931
1.6450	0.11854
1.6500	0.11683
1.6550	0.11597
1.6600	0.11586
1.6650	0.11450
1.6700	0.11368
1.6750	0.11255
1.6800	0.11160
1.6850	0.11039
1.6900	0.10975
1.6950	0.10888
1.7000	0.10830
1.7050	0.10714
1.7100	0.10623
1.7150	0.10527
1.7200	0.10434
1.7250	0.10338
1.7300	0.10248
1.7350	0.10172
1.7400	0.10095
1.7450	0.10031
1.7500	0.099503
1.7550	0.098588
1.7600	0.097950
1.7650	0.097341
1.7700	0.096631
1.7750	0.095909
1.7800	0.095133
1.7850	0.094533
1.7900	0.093971
1.7950	0.093304
1.8000	0.092665
1.8050	0.092000
1.8100	0.091537
1.8150	0.090964
1.8200	0.090281
1.8250	0.090291
1.8300	0.089567
1.8350	0.088870
1.8400	0.088391
1.8450	0.088490
1.8500	0.087829
1.8550	0.087654
1.8600	0.087205
1.8650	0.087013
1.8700	0.085626
1.8750	0.086319
1.8800	0.086553
1.8850	0.085596
1.8900	0.085352
1.8950	0.085126
1.9000	0.084436
1.9050	0.084621
1.9100	0.084589
1.9150	0.084107
1.9200	0.083971
1.9250	0.084186
1.9300	0.083796
1.9350	0.083883
1.9400	0.083557
1.9450	0.083427
1.9500	0.083164
1.9550	0.083010
1.9600	0.082965
1.9650	0.082860
1.9700	0.083119
1.9750	0.083118
1.9800	0.082994
1.9850	0.083133
1.9900	0.083082
1.9950	0.083060
2.0000	0.083217
2.0050	0.083287
2.0100	0.083549
2.0150	0.083642
2.0200	0.083581
2.0250	0.083935
2.0300	0.084068
2.0350	0.084346
2.0400	0.084463
2.0450	0.084723
2.0500	0.084844
2.0550	0.085082
2.0600	0.085536
2.0650	0.085483
2.0700	0.085841
2.0750	0.086173
2.0800	0.086366
2.0850	0.086645
2.0900	0.087071
2.0950	0.087476
2.1000	0.087852
2.1050	0.088021
2.1100	0.088629
2.1150	0.088999
2.1200	0.089145
2.1250	0.089578
2.1300	0.090169
2.1350	0.090311
2.1400	0.091011
2.1450	0.091282
2.1500	0.091996
2.1550	0.092343
2.1600	0.092843
2.1650	0.093148
2.1700	0.093767
2.1750	0.094315
2.1800	0.095227
2.1850	0.095656
2.1900	0.096448
2.1950	0.096760
2.2000	0.097344
2.2050	0.098143
2.2100	0.098950
2.2150	0.099530
2.2200	0.10018
2.2250	0.10079
2.2300	0.10126
2.2350	0.10222
2.2400	0.10272
2.2450	0.10354
2.2500	0.10411
2.2550	0.10503
2.2600	0.10562
2.2650	0.10620
2.2700	0.10701
2.2750	0.10799
2.2800	0.10857
2.2850	0.10909
2.2900	0.10986
2.2950	0.11075
2.3000	0.11129
2.3050	0.11211
2.3100	0.11298
2.3150	0.11368
2.3200	0.11427
2.3250	0.11489
2.3300	0.11574
2.3350	0.11643
2.3400	0.11716
2.3450	0.11799
2.3500	0.11863
2.3550	0.11929
2.3600	0.12009
2.3650	0.12084
2.3700	0.12231
2.3750	0.12299
2.3800	0.12400
2.3850	0.12474
2.3900	0.12553
2.3950	0.12624
2.4000	0.12693
2.4050	0.12782
2.4100	0.12861
2.4150	0.12933
2.4200	0.13019
2.4250	0.13122
2.4300	0.13194
2.4350	0.13207
2.4400	0.13311
2.4450	0.13345
2.4500	0.13402
2.4550	0.13473
2.4600	0.13527
2.4650	0.13605
2.4700	0.13642
2.4750	0.13771
2.4800	0.13792
2.4850	0.13844
2.4900	0.13899
2.4950	0.13944
2.5000	0.14018
2.5020	0.14078
2.5032	0.14040
2.5044	0.14041
2.5056	0.14015
2.5068	0.13969
2.5080	0.14009
2.5093	0.14149
2.5105	0.14207
2.5117	0.14162
2.5129	0.14081
2.5141	0.14188
2.5153	0.14209
2.5166	0.14208
2.5178	0.14234
2.5190	0.14246
2.5202	0.14153
2.5215	0.14128
2.5227	0.14202
2.5239	0.14233
2.5252	0.14150
2.5264	0.14089
2.5276	0.14096
2.5288	0.14173
2.5301	0.14230
2.5313	0.14273
2.5326	0.14348
2.5338	0.14315
2.5350	0.14246
2.5363	0.14198
2.5375	0.14279
2.5388	0.14352
2.5400	0.14195
2.5412	0.14160
2.5425	0.14247
2.5437	0.14269
2.5450	0.14285
2.5462	0.14345
2.5475	0.14336
2.5487	0.14331
2.5500	0.14314
2.5512	0.14226
2.5525	0.14153
2.5538	0.14162
2.5550	0.14234
2.5563	0.14252
2.5575	0.14258
2.5588	0.14313
2.5601	0.14287
2.5613	0.14193
2.5626	0.14355
2.5639	0.14485
2.5651	0.14434
2.5664	0.14447
2.5677	0.14408
2.5689	0.14313
2.5702	0.14276
2.5715	0.14398
2.5728	0.14525
2.5740	0.14393
2.5753	0.14391
2.5766	0.14414
2.5779	0.14325
2.5792	0.14392
2.5805	0.14453
2.5817	0.14307
2.5830	0.14258
2.5843	0.14284
2.5856	0.14407
2.5869	0.14545
2.5882	0.14474
2.5895	0.14419
2.5908	0.14390
2.5921	0.14389
2.5934	0.14431
2.5947	0.14378
2.5960	0.14450
2.5973	0.14874
2.5986	0.14885
2.5999	0.14612
2.6012	0.14445
2.6025	0.14415
2.6038	0.14401
2.6051	0.14393
2.6064	0.14429
2.6077	0.14586
2.6090	0.14550
2.6103	0.14472
2.6117	0.14522
2.6130	0.14596
2.6143	0.14562
2.6156	0.14518
2.6169	0.14446
2.6182	0.14456
2.6196	0.14582
2.6209	0.14461
2.6222	0.14481
2.6235	0.14685
2.6249	0.14585
2.6262	0.14518
2.6275	0.14455
2.6289	0.14536
2.6302	0.14672
2.6315	0.14631
2.6329	0.14755
2.6342	0.14704
2.6356	0.14476
2.6369	0.14400
2.6382	0.14303
2.6396	0.14372
2.6409	0.14432
2.6423	0.14353
2.6436	0.14325
2.6450	0.14300
2.6463	0.14327
2.6477	0.14407
2.6490	0.14327
2.6504	0.14250
2.6517	0.14211
2.6531	0.14202
2.6544	0.14396
2.6558	0.14551
2.6572	0.14403
2.6585	0.14296
2.6599	0.14244
2.6613	0.14300
2.6626	0.14381
2.6640	0.14360
2.6654	0.14234
2.6667	0.14348
2.6681	0.14590
2.6695	0.14529
2.6709	0.14267
2.6722	0.14327
2.6736	0.14491
2.6750	0.14187
2.6764	0.13938
2.6778	0.14011
2.6791	0.14155
2.6805	0.14073
2.6819	0.14063
2.6833	0.13978
2.6847	0.13816
2.6861	0.13782
2.6875	0.13713
2.6889	0.13717
2.6903	0.13739
2.6917	0.13654
2.6931	0.13559
2.6945	0.13553
2.6959	0.13622
2.6973	0.13690
2.6987	0.13640
2.7001	0.13452
2.7015	0.13228
2.7029	0.13195
2.7043	0.13277
2.7057	0.13275
2.7071	0.13139
2.7085	0.12969
2.7100	0.12887
2.7114	0.12898
2.7128	0.12885
2.7142	0.12885
2.7156	0.12778
2.7171	0.12555
2.7185	0.12358
2.7199	0.12273
2.7213	0.12211
2.7228	0.12230
2.7242	0.12186
2.7256	0.12073
2.7271	0.12157
2.7285	0.12069
2.7299	0.11957
2.7314	0.11865
2.7328	0.11831
2.7342	0.11753
2.7357	0.11622
2.7371	0.11698
2.7386	0.11783
2.7400	0.11717
2.7415	0.11817
2.7429	0.11899
2.7444	0.11769
2.7458	0.11603
2.7473	0.11472
2.7487	0.11377
2.7502	0.11343
2.7517	0.11314
2.7531	0.11186
2.7546	0.11097
2.7561	0.11124
2.7575	0.11346
2.7590	0.11325
2.7605	0.11058
2.7619	0.10941
2.7634	0.10945
2.7649	0.10992
2.7663	0.11041
2.7678	0.10940
2.7693	0.10870
2.7708	0.10861
2.7723	0.10915
2.7737	0.10931
2.7752	0.10859
2.7767	0.10825
2.7782	0.10723
2.7797	0.10630
2.7812	0.10575
2.7827	0.10562
2.7842	0.10605
2.7857	0.10675
2.7872	0.10671
2.7887	0.10576
2.7902	0.10587
2.7917	0.10611
2.7932	0.10569
2.7947	0.10438
2.7962	0.10323
2.7977	0.10349
2.7992	0.10432
2.8007	0.10364
2.8022	0.10341
2.8038	0.10365
2.8053	0.10402
2.8068	0.10402
2.8083	0.10323
2.8098	0.10250
2.8114	0.10261
2.8129	0.10266
2.8144	0.10269
2.8159	0.10236
2.8175	0.10157
2.8190	0.10166
2.8205	0.10144
2.8221	0.10138
2.8236	0.10163
2.8251	0.10125
2.8267	0.10125
2.8282	0.10198
2.8298	0.10160
2.8313	0.10112
2.8329	0.10087
2.8344	0.099750
2.8360	0.099231
2.8375	0.099901
2.8391	0.10064
2.8406	0.10034
2.8422	0.099776
2.8437	0.10029
2.8453	0.10047
2.8469	0.10038
2.8484	0.10052
2.8500	0.10043
2.8516	0.10008
2.8531	0.099931
2.8547	0.099625
2.8563	0.099201
2.8578	0.099995
2.8594	0.099955
2.8610	0.099499
2.8626	0.099906
2.8642	0.10001
2.8657	0.10026
2.8673	0.10056
2.8689	0.10001
2.8705	0.099220
2.8721	0.098475
2.8737	0.098207
2.8753	0.098784
2.8769	0.099167
2.8785	0.099161
2.8801	0.099233
2.8817	0.099092
2.8833	0.098622
2.8849	0.098771
2.8865	0.099160
2.8881	0.098899
2.8897	0.099046
2.8913	0.099171
2.8929	0.099131
2.8945	0.098562
2.8962	0.098803
2.8978	0.099114
2.8994	0.098075
2.9010	0.097628
2.9027	0.098524
2.9043	0.099026
2.9059	0.099295
2.9075	0.099188
2.9092	0.098360
2.9108	0.097724
2.9124	0.097734
2.9141	0.098305
2.9157	0.098599
2.9174	0.098647
2.9190	0.098733
2.9206	0.098079
2.9223	0.097758
2.9239	0.097832
2.9256	0.097809
2.9272	0.098275
2.9289	0.098594
2.9305	0.097992
2.9322	0.097945
2.9339	0.098156
2.9355	0.097868
2.9372	0.097773
2.9389	0.097004
2.9405	0.096687
2.9422	0.097391
2.9439	0.098098
2.9455	0.097790
2.9472	0.097202
2.9489	0.097441
2.9506	0.097334
2.9522	0.096998
2.9539	0.096987
2.9556	0.097230
2.9573	0.096859
2.9590	0.096674
2.9607	0.097130
2.9624	0.097074
2.9641	0.096676
2.9658	0.096851
2.9674	0.096759
2.9691	0.096057
2.9709	0.095778
2.9726	0.096210
2.9743	0.096574
2.9760	0.096723
2.9777	0.096591
2.9794	0.096370
2.9811	0.096557
2.9828	0.096500
2.9845	0.095970
2.9863	0.095648
2.9880	0.095427
2.9897	0.095769
2.9914	0.096119
2.9931	0.096035
2.9949	0.095870
2.9966	0.095703
2.9983	0.096065
3.0001	0.096110
3.0018	0.096250
3.0036	0.096668
3.0053	0.096738
3.0070	0.096036
3.0088	0.096078
3.0105	0.096308
3.0123	0.096008
3.0140	0.095969
3.0158	0.096146
3.0175	0.096423
3.0193	0.096483
3.0211	0.096383
3.0228	0.096025
3.0246	0.095718
3.0263	0.095606
3.0281	0.095448
3.0299	0.095986
3.0317	0.096312
3.0334	0.095767
3.0352	0.095927
3.0370	0.095597
3.0388	0.095286
3.0405	0.095029
3.0423	0.095210
3.0441	0.095299
3.0459	0.095363
3.0477	0.095388
3.0495	0.095101
3.0513	0.095423
3.0531	0.095601
3.0549	0.094784
3.0567	0.094639
3.0585	0.094952
3.0603	0.095391
3.0621	0.095572
3.0639	0.094875
3.0657	0.094526
3.0675	0.094799
3.0694	0.094828
3.0712	0.095361
3.0730	0.095539
3.0748	0.095050
3.0766	0.094641
3.0785	0.094573
3.0803	0.094360
3.0821	0.094035
3.0840	0.094267
3.0858	0.094903
3.0876	0.095393
3.0895	0.094805
3.0913	0.094373
3.0932	0.094313
3.0950	0.094324
3.0969	0.094454
3.0987	0.094613
3.1006	0.094903
3.1024	0.094771
3.1043	0.094360
3.1061	0.093960
3.1080	0.094235
3.1099	0.094707
3.1117	0.094539
3.1136	0.094096
3.1155	0.094286
3.1173	0.094409
3.1192	0.094015
3.1211	0.093658
3.1230	0.094232
3.1249	0.094454
3.1267	0.094232
3.1286	0.094284
3.1305	0.094343
3.1324	0.094113
3.1343	0.094475
3.1362	0.094505
3.1381	0.094183
3.1400	0.094220
3.1419	0.094079
3.1438	0.094086
3.1457	0.094211
3.1476	0.094066
3.1495	0.093817
3.1514	0.094115
3.1534	0.094828
3.1553	0.094705
3.1572	0.094415
3.1591	0.094522
3.1611	0.094475
3.1630	0.094071
3.1649	0.093900
3.1669	0.094407
3.1688	0.094882
3.1707	0.094550
3.1727	0.094360
3.1746	0.094179
3.1766	0.094439
3.1785	0.094548
3.1805	0.094696
3.1824	0.094684
3.1844	0.094320
3.1863	0.093894
3.1883	0.094132
3.1902	0.094850
3.1922	0.095195
3.1942	0.094573
3.1961	0.094375
3.1981	0.094669
3.2001	0.094892
3.2021	0.094726
3.2040	0.094662
3.2060	0.094918
3.2080	0.095227
3.2100	0.095252
3.2120	0.095127
3.2140	0.095107
3.2160	0.095246
3.2180	0.095316
3.2200	0.095122
3.2220	0.095124
3.2240	0.095248
3.2260	0.095169
3.2280	0.094980
3.2300	0.094835
3.2320	0.095103
3.2340	0.095067
3.2360	0.094977
3.2381	0.095433
3.2401	0.095518
3.2421	0.095027
3.2441	0.095286
3.2462	0.095631
3.2482	0.095561
3.2502	0.095356
3.2523	0.095269
3.2543	0.095452
3.2564	0.095324
3.2584	0.095061
3.2605	0.095061
3.2625	0.095082
3.2646	0.095344
3.2666	0.095122
3.2687	0.094939
3.2707	0.094554
3.2728	0.094492
3.2749	0.094788
3.2770	0.094984
3.2790	0.095043
3.2811	0.095020
3.2832	0.095126
3.2853	0.094941
3.2873	0.094805
3.2894	0.094990
3.2915	0.095316
3.2936	0.095452
3.2957	0.095408
3.2978	0.095282
3.2999	0.095199
3.3020	0.095218
3.3041	0.095316
3.3062	0.095559
3.3083	0.095312
3.3104	0.094931
3.3125	0.095067
3.3147	0.095175
3.3168	0.095188
3.3189	0.095459
3.3210	0.095378
3.3232	0.095559
3.3253	0.095450
3.3274	0.095222
3.3296	0.095346
3.3317	0.095220
3.3338	0.094922
3.3360	0.095031
3.3381	0.094986
3.3403	0.095056
3.3424	0.094958
3.3446	0.094584
3.3468	0.094916
3.3489	0.094948
3.3511	0.094377
3.3533	0.094300
3.3554	0.094967
3.3576	0.095150
3.3598	0.095137
3.3620	0.095469
3.3641	0.095752
3.3663	0.095814
3.3685	0.095405
3.3707	0.095078
3.3729	0.095044
3.3751	0.095452
3.3773	0.095380
3.3795	0.095143
3.3817	0.095197
3.3839	0.095314
3.3861	0.095307
3.3883	0.094967
3.3905	0.094877
3.3928	0.095425
3.3950	0.095437
3.3972	0.095241
3.3994	0.095299
3.4017	0.095369
3.4039	0.094697
3.4061	0.094575
3.4084	0.094952
3.4106	0.095171
3.4129	0.095473
3.4151	0.095175
3.4174	0.094584
3.4196	0.094377
3.4219	0.094647
3.4241	0.095107
3.4264	0.095146
3.4287	0.095052
3.4309	0.095429
3.4332	0.095410
3.4355	0.095129
3.4378	0.095005
3.4400	0.094960
3.4423	0.095039
3.4446	0.095297
3.4469	0.095569
3.4492	0.095522
3.4515	0.095259
3.4538	0.095143
3.4561	0.095186
3.4584	0.095384
3.4607	0.095093
3.4630	0.095141
3.4653	0.095363
3.4676	0.095503
3.4700	0.095258
3.4723	0.095224
3.4746	0.095473
3.4770	0.095525
3.4793	0.095207
3.4816	0.095014
3.4840	0.095112
3.4863	0.094935
3.4887	0.094643
3.4910	0.094731
3.4934	0.094939
3.4957	0.095003
3.4981	0.094986
3.5004	0.094950
3.5028	0.094765
3.5052	0.094905
3.5075	0.095016
3.5099	0.095016
3.5123	0.094846
3.5147	0.094743
3.5171	0.094978
3.5194	0.095043
3.5218	0.094899
3.5242	0.094888
3.5266	0.095078
3.5290	0.095254
3.5314	0.095523
3.5338	0.095567
3.5362	0.095623
3.5387	0.095718
3.5411	0.095716
3.5435	0.095804
3.5459	0.095633
3.5483	0.095804
3.5508	0.095876
3.5532	0.095622
3.5556	0.095814
3.5581	0.095461
3.5605	0.095197
3.5630	0.095512
3.5654	0.095378
3.5679	0.095135
3.5703	0.095337
3.5728	0.095399
3.5753	0.095341
3.5777	0.095727
3.5802	0.095761
3.5827	0.095789
3.5852	0.096114
3.5876	0.095927
3.5901	0.095697
3.5926	0.095761
3.5951	0.095927
3.5976	0.095889
3.6001	0.095622
3.6026	0.095614
3.6051	0.095967
3.6076	0.095948
3.6101	0.095640
3.6126	0.095584
3.6152	0.096010
3.6177	0.096285
3.6202	0.096393
3.6227	0.096312
3.6253	0.096302
3.6278	0.096529
3.6303	0.096365
3.6329	0.096065
3.6354	0.096250
3.6380	0.096402
3.6405	0.096278
3.6431	0.096261
3.6457	0.096206
3.6482	0.096246
3.6508	0.096250
3.6534	0.096265
3.6559	0.096363
3.6585	0.096540
3.6611	0.096355
3.6637	0.096168
3.6663	0.096206
3.6689	0.096681
3.6715	0.096851
3.6741	0.096944
3.6767	0.096815
3.6793	0.096691
3.6819	0.096776
3.6845	0.096642
3.6872	0.096572
3.6898	0.096457
3.6924	0.096548
3.6950	0.096608
3.6977	0.096536
3.7003	0.096476
3.7030	0.096091
3.7056	0.096123
3.7083	0.096278
3.7109	0.096091
3.7136	0.096257
3.7162	0.096529
3.7189	0.096540
3.7216	0.096595
3.7242	0.096647
3.7269	0.096572
3.7296	0.096574
3.7323	0.096802
3.7350	0.096766
3.7377	0.096532
3.7404	0.096421
3.7431	0.096548
3.7458	0.096276
3.7485	0.096210
3.7512	0.096299
3.7539	0.096174
3.7566	0.096274
3.7593	0.096312
3.7621	0.096144
3.7648	0.096221
3.7675	0.096568
3.7703	0.096666
3.7730	0.096551
3.7758	0.096395
3.7785	0.096344
3.7813	0.096089
3.7840	0.095863
3.7868	0.096306
3.7896	0.096763
3.7923	0.096874
3.7951	0.096876
3.7979	0.096655
3.8007	0.096325
3.8035	0.096329
3.8063	0.096472
3.8091	0.096397
3.8119	0.096431
3.8147	0.096491
3.8175	0.096719
3.8203	0.097051
3.8231	0.096961
3.8259	0.096638
3.8288	0.096787
3.8316	0.097087
3.8344	0.097151
3.8373	0.096902
3.8401	0.096570
3.8429	0.096399
3.8458	0.096440
3.8487	0.096559
3.8515	0.096819
3.8544	0.097045
3.8572	0.096925
3.8601	0.096895
3.8630	0.096878
3.8659	0.096870
3.8688	0.096744
3.8716	0.096638
3.8745	0.097032
3.8774	0.097093
3.8803	0.097202
3.8832	0.097221
3.8862	0.097251
3.8891	0.097351
3.8920	0.097228
3.8949	0.097113
3.8978	0.097196
3.9008	0.097298
3.9037	0.097060
3.9067	0.096985
3.9096	0.097387
3.9126	0.097600
3.9155	0.097268
3.9185	0.097226
3.9214	0.097253
3.9244	0.097245
3.9274	0.096961
3.9304	0.096838
3.9333	0.096987
3.9363	0.096770
3.9393	0.096693
3.9423	0.096695
3.9453	0.096653
3.9483	0.096766
3.9513	0.096891
3.9543	0.097027
3.9574	0.096840
3.9604	0.096310
3.9634	0.096417
3.9664	0.096574
3.9695	0.096372
3.9725	0.096431
3.9756	0.096566
3.9786	0.096542
3.9817	0.096297
3.9847	0.096097
3.9878	0.096095
3.9909	0.096368
3.9939	0.096451
3.9970	0.096287
4.0001	0.096104
4.0032	0.096293
4.0063	0.096410
4.0094	0.096536
4.0125	0.096561
4.0156	0.096536
4.0187	0.096331
4.0218	0.096366
4.0249	0.096493
4.0281	0.096646
4.0312	0.096480
4.0343	0.096449
4.0375	0.096489
4.0406	0.096336
4.0438	0.096195
4.0469	0.095963
4.0501	0.096121
4.0533	0.096189
4.0564	0.096097
4.0596	0.096361
4.0628	0.096517
4.0660	0.096432
4.0692	0.096427
4.0724	0.096351
4.0756	0.096223
4.0788	0.096248
4.0820	0.096361
4.0852	0.096193
4.0884	0.096157
4.0917	0.096225
4.0949	0.096370
4.0981	0.096383
4.1014	0.096393
4.1046	0.096253
4.1079	0.096306
4.1111	0.096463
4.1144	0.096391
4.1177	0.096217
4.1209	0.095970
4.1242	0.095897
4.1275	0.096067
4.1308	0.096238
4.1341	0.096153
4.1374	0.096063
4.1407	0.095916
4.1440	0.095929
4.1473	0.096025
4.1506	0.096142
4.1540	0.096199
4.1573	0.096246
4.1606	0.096063
4.1640	0.095763
4.1673	0.095801
4.1707	0.095825
4.1740	0.095884
4.1774	0.096025
4.1808	0.096155
